# September 2014 -- MMTO (rcool)
# BLUE CHANNEL THROUGHPUT 
#
# 1. Wavelength (Angstroms)
# 2. Count Rate (Counts / s / Angstrom / micro-Jy) -- assuming constant source (in Fnu)
#
      3000.00  0.000183835
      3001.00  0.000167411
      3002.00  0.000151439
      3003.00  0.000135919
      3004.00  0.000120847
      3005.00  0.000106221
      3006.00  9.20377e-05
      3007.00  7.82943e-05
      3008.00  6.49885e-05
      3009.00  5.21173e-05
      3010.00  3.96779e-05
      3011.00  2.76681e-05
      3012.00  1.60843e-05
      3013.00  4.92446e-06
      3014.00 -5.81449e-06
      3015.00 -1.61351e-05
      3016.00 -2.60404e-05
      3017.00 -3.55328e-05
      3018.00 -4.46151e-05
      3019.00 -5.32902e-05
      3020.00 -6.15610e-05
      3021.00 -6.94298e-05
      3022.00 -7.68993e-05
      3023.00 -8.39729e-05
      3024.00 -9.06524e-05
      3025.00 -9.69413e-05
      3026.00 -0.000102842
      3027.00 -0.000108357
      3028.00 -0.000113490
      3029.00 -0.000118243
      3030.00 -0.000122618
      3031.00 -0.000126619
      3032.00 -0.000130248
      3033.00 -0.000133509
      3034.00 -0.000136403
      3035.00 -0.000138934
      3036.00 -0.000141104
      3037.00 -0.000142916
      3038.00 -0.000144372
      3039.00 -0.000145476
      3040.00 -0.000146230
      3041.00 -0.000146637
      3042.00 -0.000146700
      3043.00 -0.000146422
      3044.00 -0.000145804
      3045.00 -0.000144850
      3046.00 -0.000143563
      3047.00 -0.000141945
      3048.00 -0.000139999
      3049.00 -0.000137728
      3050.00 -0.000135135
      3051.00 -0.000132222
      3052.00 -0.000128992
      3053.00 -0.000125447
      3054.00 -0.000121591
      3055.00 -0.000117426
      3056.00 -0.000112956
      3057.00 -0.000108182
      3058.00 -0.000103107
      3059.00 -9.77351e-05
      3060.00 -9.20678e-05
      3061.00 -8.61081e-05
      3062.00 -7.98588e-05
      3063.00 -7.33225e-05
      3064.00 -6.65021e-05
      3065.00 -5.94002e-05
      3066.00 -5.20200e-05
      3067.00 -4.43636e-05
      3068.00 -3.64341e-05
      3069.00 -2.82342e-05
      3070.00 -1.97664e-05
      3071.00 -1.10339e-05
      3072.00 -2.03898e-06
      3073.00  7.21550e-06
      3074.00  1.67266e-05
      3075.00  2.64916e-05
      3076.00  3.65082e-05
      3077.00  4.67732e-05
      3078.00  5.72839e-05
      3079.00  6.80379e-05
      3080.00  7.90323e-05
      3081.00  9.02642e-05
      3082.00  0.000101731
      3083.00  0.000113430
      3084.00  0.000125358
      3085.00  0.000137513
      3086.00  0.000149892
      3087.00  0.000162492
      3088.00  0.000175310
      3089.00  0.000188345
      3090.00  0.000201591
      3091.00  0.000215049
      3092.00  0.000228714
      3093.00  0.000242583
      3094.00  0.000256655
      3095.00  0.000270926
      3096.00  0.000285394
      3097.00  0.000300055
      3098.00  0.000314907
      3099.00  0.000329948
      3100.00  0.000345175
      3101.00  0.000360584
      3102.00  0.000376173
      3103.00  0.000391940
      3104.00  0.000407881
      3105.00  0.000423995
      3106.00  0.000440277
      3107.00  0.000456726
      3108.00  0.000473339
      3109.00  0.000490113
      3110.00  0.000507045
      3111.00  0.000524132
      3112.00  0.000541372
      3113.00  0.000558762
      3114.00  0.000576300
      3115.00  0.000593982
      3116.00  0.000611806
      3117.00  0.000629769
      3118.00  0.000647868
      3119.00  0.000666101
      3120.00  0.000684465
      3121.00  0.000702957
      3122.00  0.000721574
      3123.00  0.000740314
      3124.00  0.000759174
      3125.00  0.000778151
      3126.00  0.000797242
      3127.00  0.000816445
      3128.00  0.000835757
      3129.00  0.000855176
      3130.00  0.000874698
      3131.00  0.000894320
      3132.00  0.000914041
      3133.00  0.000933857
      3134.00  0.000953766
      3135.00  0.000973764
      3136.00  0.000993850
      3137.00   0.00101402
      3138.00   0.00103427
      3139.00   0.00105460
      3140.00   0.00107501
      3141.00   0.00109549
      3142.00   0.00111604
      3143.00   0.00113666
      3144.00   0.00115734
      3145.00   0.00117809
      3146.00   0.00119889
      3147.00   0.00121975
      3148.00   0.00124067
      3149.00   0.00126164
      3150.00   0.00128266
      3151.00   0.00130372
      3152.00   0.00132483
      3153.00   0.00134597
      3154.00   0.00136716
      3155.00   0.00138838
      3156.00   0.00140963
      3157.00   0.00143091
      3158.00   0.00145222
      3159.00   0.00147355
      3160.00   0.00149491
      3161.00   0.00151628
      3162.00   0.00153767
      3163.00   0.00155907
      3164.00   0.00158048
      3165.00   0.00160190
      3166.00   0.00162333
      3167.00   0.00164476
      3168.00   0.00166618
      3169.00   0.00168761
      3170.00   0.00170903
      3171.00   0.00173043
      3172.00   0.00175183
      3173.00   0.00177322
      3174.00   0.00179458
      3175.00   0.00181593
      3176.00   0.00183725
      3177.00   0.00185855
      3178.00   0.00187982
      3179.00   0.00190106
      3180.00   0.00192227
      3181.00   0.00194344
      3182.00   0.00196458
      3183.00   0.00198567
      3184.00   0.00200671
      3185.00   0.00202771
      3186.00   0.00204866
      3187.00   0.00206956
      3188.00   0.00209040
      3189.00   0.00211119
      3190.00   0.00213191
      3191.00   0.00215257
      3192.00   0.00217316
      3193.00   0.00219369
      3194.00   0.00221414
      3195.00   0.00223452
      3196.00   0.00225482
      3197.00   0.00227504
      3198.00   0.00229518
      3199.00   0.00231524
      3200.00   0.00233520
      3201.00   0.00235508
      3202.00   0.00237486
      3203.00   0.00239455
      3204.00   0.00241413
      3205.00   0.00243362
      3206.00   0.00245300
      3207.00   0.00247227
      3208.00   0.00249143
      3209.00   0.00251049
      3210.00   0.00252943
      3211.00   0.00254827
      3212.00   0.00256700
      3213.00   0.00258563
      3214.00   0.00260415
      3215.00   0.00262256
      3216.00   0.00264087
      3217.00   0.00265907
      3218.00   0.00267717
      3219.00   0.00269517
      3220.00   0.00271307
      3221.00   0.00273086
      3222.00   0.00274855
      3223.00   0.00276615
      3224.00   0.00278364
      3225.00   0.00280103
      3226.00   0.00281832
      3227.00   0.00283552
      3228.00   0.00285262
      3229.00   0.00286962
      3230.00   0.00288652
      3231.00   0.00290333
      3232.00   0.00292004
      3233.00   0.00293666
      3234.00   0.00295318
      3235.00   0.00296961
      3236.00   0.00298595
      3237.00   0.00300220
      3238.00   0.00301835
      3239.00   0.00303441
      3240.00   0.00305038
      3241.00   0.00306627
      3242.00   0.00308206
      3243.00   0.00309776
      3244.00   0.00311338
      3245.00   0.00312891
      3246.00   0.00314435
      3247.00   0.00315970
      3248.00   0.00317497
      3249.00   0.00319015
      3250.00   0.00320525
      3251.00   0.00322027
      3252.00   0.00323520
      3253.00   0.00325005
      3254.00   0.00326481
      3255.00   0.00327950
      3256.00   0.00329410
      3257.00   0.00330862
      3258.00   0.00332306
      3259.00   0.00333743
      3260.00   0.00335171
      3261.00   0.00336592
      3262.00   0.00338005
      3263.00   0.00339410
      3264.00   0.00340808
      3265.00   0.00342198
      3266.00   0.00343580
      3267.00   0.00344955
      3268.00   0.00346323
      3269.00   0.00347683
      3270.00   0.00349036
      3271.00   0.00350382
      3272.00   0.00351721
      3273.00   0.00353052
      3274.00   0.00354377
      3275.00   0.00355694
      3276.00   0.00357005
      3277.00   0.00358309
      3278.00   0.00359606
      3279.00   0.00360896
      3280.00   0.00362179
      3281.00   0.00363456
      3282.00   0.00364727
      3283.00   0.00365990
      3284.00   0.00367248
      3285.00   0.00368499
      3286.00   0.00369743
      3287.00   0.00370982
      3288.00   0.00372214
      3289.00   0.00373440
      3290.00   0.00374660
      3291.00   0.00375873
      3292.00   0.00377081
      3293.00   0.00378283
      3294.00   0.00379479
      3295.00   0.00380670
      3296.00   0.00381854
      3297.00   0.00383033
      3298.00   0.00384207
      3299.00   0.00385374
      3300.00   0.00386536
      3301.00   0.00387693
      3302.00   0.00388845
      3303.00   0.00389991
      3304.00   0.00391131
      3305.00   0.00392267
      3306.00   0.00393397
      3307.00   0.00394523
      3308.00   0.00395643
      3309.00   0.00396758
      3310.00   0.00397869
      3311.00   0.00398974
      3312.00   0.00400075
      3313.00   0.00401171
      3314.00   0.00402263
      3315.00   0.00403350
      3316.00   0.00404432
      3317.00   0.00405509
      3318.00   0.00406583
      3319.00   0.00407652
      3320.00   0.00408716
      3321.00   0.00409777
      3322.00   0.00410833
      3323.00   0.00411885
      3324.00   0.00412933
      3325.00   0.00413977
      3326.00   0.00415017
      3327.00   0.00416053
      3328.00   0.00417085
      3329.00   0.00418113
      3330.00   0.00419138
      3331.00   0.00420159
      3332.00   0.00421176
      3333.00   0.00422190
      3334.00   0.00423200
      3335.00   0.00424207
      3336.00   0.00425211
      3337.00   0.00426211
      3338.00   0.00427208
      3339.00   0.00428202
      3340.00   0.00429193
      3341.00   0.00430180
      3342.00   0.00431165
      3343.00   0.00432147
      3344.00   0.00433125
      3345.00   0.00434101
      3346.00   0.00435074
      3347.00   0.00436045
      3348.00   0.00437013
      3349.00   0.00437978
      3350.00   0.00438940
      3351.00   0.00439900
      3352.00   0.00440858
      3353.00   0.00441814
      3354.00   0.00442767
      3355.00   0.00443717
      3356.00   0.00444666
      3357.00   0.00445613
      3358.00   0.00446557
      3359.00   0.00447499
      3360.00   0.00448440
      3361.00   0.00449378
      3362.00   0.00450315
      3363.00   0.00451250
      3364.00   0.00452183
      3365.00   0.00453115
      3366.00   0.00454045
      3367.00   0.00454974
      3368.00   0.00455901
      3369.00   0.00456826
      3370.00   0.00457750
      3371.00   0.00458673
      3372.00   0.00459595
      3373.00   0.00460516
      3374.00   0.00461435
      3375.00   0.00462353
      3376.00   0.00463271
      3377.00   0.00464187
      3378.00   0.00465103
      3379.00   0.00466017
      3380.00   0.00466931
      3381.00   0.00467845
      3382.00   0.00468757
      3383.00   0.00469669
      3384.00   0.00470581
      3385.00   0.00471492
      3386.00   0.00472402
      3387.00   0.00473313
      3388.00   0.00474223
      3389.00   0.00475132
      3390.00   0.00476042
      3391.00   0.00476951
      3392.00   0.00477861
      3393.00   0.00478770
      3394.00   0.00479680
      3395.00   0.00480589
      3396.00   0.00481499
      3397.00   0.00482409
      3398.00   0.00483319
      3399.00   0.00484230
      3400.00   0.00485141
      3401.00   0.00486053
      3402.00   0.00486965
      3403.00   0.00487878
      3404.00   0.00488791
      3405.00   0.00489705
      3406.00   0.00490620
      3407.00   0.00491536
      3408.00   0.00492452
      3409.00   0.00493370
      3410.00   0.00494288
      3411.00   0.00495208
      3412.00   0.00496129
      3413.00   0.00497051
      3414.00   0.00497974
      3415.00   0.00498899
      3416.00   0.00499824
      3417.00   0.00500751
      3418.00   0.00501680
      3419.00   0.00502609
      3420.00   0.00503540
      3421.00   0.00504472
      3422.00   0.00505405
      3423.00   0.00506340
      3424.00   0.00507276
      3425.00   0.00508213
      3426.00   0.00509151
      3427.00   0.00510090
      3428.00   0.00511030
      3429.00   0.00511972
      3430.00   0.00512915
      3431.00   0.00513859
      3432.00   0.00514804
      3433.00   0.00515750
      3434.00   0.00516697
      3435.00   0.00517645
      3436.00   0.00518595
      3437.00   0.00519545
      3438.00   0.00520497
      3439.00   0.00521450
      3440.00   0.00522403
      3441.00   0.00523358
      3442.00   0.00524314
      3443.00   0.00525271
      3444.00   0.00526229
      3445.00   0.00527188
      3446.00   0.00528147
      3447.00   0.00529108
      3448.00   0.00530070
      3449.00   0.00531033
      3450.00   0.00531997
      3451.00   0.00532961
      3452.00   0.00533927
      3453.00   0.00534894
      3454.00   0.00535861
      3455.00   0.00536830
      3456.00   0.00537799
      3457.00   0.00538769
      3458.00   0.00539741
      3459.00   0.00540713
      3460.00   0.00541685
      3461.00   0.00542659
      3462.00   0.00543634
      3463.00   0.00544609
      3464.00   0.00545585
      3465.00   0.00546563
      3466.00   0.00547540
      3467.00   0.00548519
      3468.00   0.00549499
      3469.00   0.00550479
      3470.00   0.00551460
      3471.00   0.00552442
      3472.00   0.00553424
      3473.00   0.00554408
      3474.00   0.00555392
      3475.00   0.00556377
      3476.00   0.00557362
      3477.00   0.00558348
      3478.00   0.00559335
      3479.00   0.00560323
      3480.00   0.00561311
      3481.00   0.00562300
      3482.00   0.00563290
      3483.00   0.00564280
      3484.00   0.00565271
      3485.00   0.00566262
      3486.00   0.00567255
      3487.00   0.00568247
      3488.00   0.00569241
      3489.00   0.00570235
      3490.00   0.00571229
      3491.00   0.00572225
      3492.00   0.00573220
      3493.00   0.00574217
      3494.00   0.00575213
      3495.00   0.00576211
      3496.00   0.00577209
      3497.00   0.00578207
      3498.00   0.00579206
      3499.00   0.00580206
      3500.00   0.00581206
      3501.00   0.00582206
      3502.00   0.00583207
      3503.00   0.00584208
      3504.00   0.00585210
      3505.00   0.00586212
      3506.00   0.00587215
      3507.00   0.00588218
      3508.00   0.00589222
      3509.00   0.00590226
      3510.00   0.00591230
      3511.00   0.00592235
      3512.00   0.00593240
      3513.00   0.00594246
      3514.00   0.00595251
      3515.00   0.00596258
      3516.00   0.00597264
      3517.00   0.00598271
      3518.00   0.00599278
      3519.00   0.00600286
      3520.00   0.00601294
      3521.00   0.00602302
      3522.00   0.00603310
      3523.00   0.00604319
      3524.00   0.00605328
      3525.00   0.00606337
      3526.00   0.00607347
      3527.00   0.00608357
      3528.00   0.00609366
      3529.00   0.00610377
      3530.00   0.00611387
      3531.00   0.00612398
      3532.00   0.00613408
      3533.00   0.00614419
      3534.00   0.00615431
      3535.00   0.00616442
      3536.00   0.00617453
      3537.00   0.00618465
      3538.00   0.00619477
      3539.00   0.00620489
      3540.00   0.00621501
      3541.00   0.00622513
      3542.00   0.00623525
      3543.00   0.00624537
      3544.00   0.00625550
      3545.00   0.00626562
      3546.00   0.00627575
      3547.00   0.00628587
      3548.00   0.00629600
      3549.00   0.00630613
      3550.00   0.00631625
      3551.00   0.00632638
      3552.00   0.00633651
      3553.00   0.00634663
      3554.00   0.00635676
      3555.00   0.00636689
      3556.00   0.00637701
      3557.00   0.00638714
      3558.00   0.00639726
      3559.00   0.00640739
      3560.00   0.00641751
      3561.00   0.00642764
      3562.00   0.00643776
      3563.00   0.00644788
      3564.00   0.00645800
      3565.00   0.00646812
      3566.00   0.00647824
      3567.00   0.00648835
      3568.00   0.00649847
      3569.00   0.00650858
      3570.00   0.00651870
      3571.00   0.00652881
      3572.00   0.00653891
      3573.00   0.00654902
      3574.00   0.00655913
      3575.00   0.00656923
      3576.00   0.00657933
      3577.00   0.00658943
      3578.00   0.00659952
      3579.00   0.00660962
      3580.00   0.00661971
      3581.00   0.00662979
      3582.00   0.00663988
      3583.00   0.00664996
      3584.00   0.00666004
      3585.00   0.00667012
      3586.00   0.00668019
      3587.00   0.00669026
      3588.00   0.00670033
      3589.00   0.00671039
      3590.00   0.00672045
      3591.00   0.00673051
      3592.00   0.00674056
      3593.00   0.00675061
      3594.00   0.00676065
      3595.00   0.00677069
      3596.00   0.00678073
      3597.00   0.00679076
      3598.00   0.00680079
      3599.00   0.00681082
      3600.00   0.00682084
      3601.00   0.00683085
      3602.00   0.00684086
      3603.00   0.00685087
      3604.00   0.00686087
      3605.00   0.00687086
      3606.00   0.00688086
      3607.00   0.00689084
      3608.00   0.00690082
      3609.00   0.00691080
      3610.00   0.00692077
      3611.00   0.00693073
      3612.00   0.00694069
      3613.00   0.00695065
      3614.00   0.00696059
      3615.00   0.00697054
      3616.00   0.00698047
      3617.00   0.00699040
      3618.00   0.00700032
      3619.00   0.00701024
      3620.00   0.00702015
      3621.00   0.00703006
      3622.00   0.00703996
      3623.00   0.00704985
      3624.00   0.00705973
      3625.00   0.00706961
      3626.00   0.00707949
      3627.00   0.00708935
      3628.00   0.00709921
      3629.00   0.00710906
      3630.00   0.00711891
      3631.00   0.00712875
      3632.00   0.00713858
      3633.00   0.00714841
      3634.00   0.00715823
      3635.00   0.00716805
      3636.00   0.00717785
      3637.00   0.00718766
      3638.00   0.00719745
      3639.00   0.00720724
      3640.00   0.00721702
      3641.00   0.00722680
      3642.00   0.00723657
      3643.00   0.00724633
      3644.00   0.00725609
      3645.00   0.00726584
      3646.00   0.00727558
      3647.00   0.00728532
      3648.00   0.00729505
      3649.00   0.00730477
      3650.00   0.00731449
      3651.00   0.00732420
      3652.00   0.00733390
      3653.00   0.00734360
      3654.00   0.00735329
      3655.00   0.00736298
      3656.00   0.00737266
      3657.00   0.00738233
      3658.00   0.00739200
      3659.00   0.00740166
      3660.00   0.00741131
      3661.00   0.00742096
      3662.00   0.00743060
      3663.00   0.00744023
      3664.00   0.00744986
      3665.00   0.00745948
      3666.00   0.00746909
      3667.00   0.00747870
      3668.00   0.00748830
      3669.00   0.00749790
      3670.00   0.00750748
      3671.00   0.00751707
      3672.00   0.00752664
      3673.00   0.00753621
      3674.00   0.00754577
      3675.00   0.00755533
      3676.00   0.00756488
      3677.00   0.00757442
      3678.00   0.00758396
      3679.00   0.00759349
      3680.00   0.00760302
      3681.00   0.00761253
      3682.00   0.00762204
      3683.00   0.00763155
      3684.00   0.00764105
      3685.00   0.00765054
      3686.00   0.00766003
      3687.00   0.00766950
      3688.00   0.00767898
      3689.00   0.00768844
      3690.00   0.00769790
      3691.00   0.00770736
      3692.00   0.00771680
      3693.00   0.00772624
      3694.00   0.00773568
      3695.00   0.00774511
      3696.00   0.00775453
      3697.00   0.00776394
      3698.00   0.00777335
      3699.00   0.00778275
      3700.00   0.00779215
      3701.00   0.00780154
      3702.00   0.00781092
      3703.00   0.00782029
      3704.00   0.00782966
      3705.00   0.00783903
      3706.00   0.00784838
      3707.00   0.00785774
      3708.00   0.00786708
      3709.00   0.00787642
      3710.00   0.00788575
      3711.00   0.00789507
      3712.00   0.00790439
      3713.00   0.00791370
      3714.00   0.00792301
      3715.00   0.00793231
      3716.00   0.00794160
      3717.00   0.00795089
      3718.00   0.00796016
      3719.00   0.00796944
      3720.00   0.00797870
      3721.00   0.00798796
      3722.00   0.00799722
      3723.00   0.00800647
      3724.00   0.00801571
      3725.00   0.00802494
      3726.00   0.00803417
      3727.00   0.00804339
      3728.00   0.00805261
      3729.00   0.00806182
      3730.00   0.00807102
      3731.00   0.00808022
      3732.00   0.00808940
      3733.00   0.00809859
      3734.00   0.00810776
      3735.00   0.00811694
      3736.00   0.00812610
      3737.00   0.00813526
      3738.00   0.00814441
      3739.00   0.00815355
      3740.00   0.00816269
      3741.00   0.00817182
      3742.00   0.00818095
      3743.00   0.00819007
      3744.00   0.00819918
      3745.00   0.00820829
      3746.00   0.00821739
      3747.00   0.00822648
      3748.00   0.00823557
      3749.00   0.00824465
      3750.00   0.00825372
      3751.00   0.00826279
      3752.00   0.00827185
      3753.00   0.00828091
      3754.00   0.00828996
      3755.00   0.00829900
      3756.00   0.00830803
      3757.00   0.00831706
      3758.00   0.00832609
      3759.00   0.00833510
      3760.00   0.00834411
      3761.00   0.00835312
      3762.00   0.00836211
      3763.00   0.00837110
      3764.00   0.00838009
      3765.00   0.00838907
      3766.00   0.00839804
      3767.00   0.00840700
      3768.00   0.00841596
      3769.00   0.00842492
      3770.00   0.00843386
      3771.00   0.00844280
      3772.00   0.00845173
      3773.00   0.00846066
      3774.00   0.00846958
      3775.00   0.00847849
      3776.00   0.00848740
      3777.00   0.00849630
      3778.00   0.00850520
      3779.00   0.00851409
      3780.00   0.00852297
      3781.00   0.00853184
      3782.00   0.00854071
      3783.00   0.00854958
      3784.00   0.00855843
      3785.00   0.00856728
      3786.00   0.00857612
      3787.00   0.00858496
      3788.00   0.00859379
      3789.00   0.00860262
      3790.00   0.00861144
      3791.00   0.00862025
      3792.00   0.00862905
      3793.00   0.00863785
      3794.00   0.00864664
      3795.00   0.00865543
      3796.00   0.00866421
      3797.00   0.00867298
      3798.00   0.00868175
      3799.00   0.00869051
      3800.00   0.00869926
      3801.00   0.00870801
      3802.00   0.00871675
      3803.00   0.00872549
      3804.00   0.00873422
      3805.00   0.00874294
      3806.00   0.00875165
      3807.00   0.00876036
      3808.00   0.00876907
      3809.00   0.00877776
      3810.00   0.00878645
      3811.00   0.00879513
      3812.00   0.00880381
      3813.00   0.00881248
      3814.00   0.00882115
      3815.00   0.00882980
      3816.00   0.00883846
      3817.00   0.00884710
      3818.00   0.00885574
      3819.00   0.00886437
      3820.00   0.00887300
      3821.00   0.00888162
      3822.00   0.00889023
      3823.00   0.00889884
      3824.00   0.00890744
      3825.00   0.00891603
      3826.00   0.00892462
      3827.00   0.00893320
      3828.00   0.00894178
      3829.00   0.00895035
      3830.00   0.00895891
      3831.00   0.00896746
      3832.00   0.00897601
      3833.00   0.00898455
      3834.00   0.00899309
      3835.00   0.00900161
      3836.00   0.00901013
      3837.00   0.00901865
      3838.00   0.00902715
      3839.00   0.00903565
      3840.00   0.00904413
      3841.00   0.00905262
      3842.00   0.00906109
      3843.00   0.00906955
      3844.00   0.00907801
      3845.00   0.00908645
      3846.00   0.00909489
      3847.00   0.00910332
      3848.00   0.00911174
      3849.00   0.00912015
      3850.00   0.00912855
      3851.00   0.00913695
      3852.00   0.00914533
      3853.00   0.00915370
      3854.00   0.00916206
      3855.00   0.00917042
      3856.00   0.00917876
      3857.00   0.00918709
      3858.00   0.00919541
      3859.00   0.00920372
      3860.00   0.00921203
      3861.00   0.00922032
      3862.00   0.00922859
      3863.00   0.00923686
      3864.00   0.00924512
      3865.00   0.00925336
      3866.00   0.00926160
      3867.00   0.00926982
      3868.00   0.00927803
      3869.00   0.00928623
      3870.00   0.00929442
      3871.00   0.00930259
      3872.00   0.00931075
      3873.00   0.00931890
      3874.00   0.00932704
      3875.00   0.00933516
      3876.00   0.00934327
      3877.00   0.00935137
      3878.00   0.00935946
      3879.00   0.00936753
      3880.00   0.00937559
      3881.00   0.00938363
      3882.00   0.00939166
      3883.00   0.00939968
      3884.00   0.00940769
      3885.00   0.00941567
      3886.00   0.00942365
      3887.00   0.00943161
      3888.00   0.00943956
      3889.00   0.00944749
      3890.00   0.00945541
      3891.00   0.00946331
      3892.00   0.00947120
      3893.00   0.00947907
      3894.00   0.00948692
      3895.00   0.00949477
      3896.00   0.00950259
      3897.00   0.00951040
      3898.00   0.00951820
      3899.00   0.00952597
      3900.00   0.00953374
      3901.00   0.00954148
      3902.00   0.00954921
      3903.00   0.00955692
      3904.00   0.00956462
      3905.00   0.00957230
      3906.00   0.00957996
      3907.00   0.00958761
      3908.00   0.00959524
      3909.00   0.00960285
      3910.00   0.00961044
      3911.00   0.00961802
      3912.00   0.00962557
      3913.00   0.00963311
      3914.00   0.00964064
      3915.00   0.00964814
      3916.00   0.00965563
      3917.00   0.00966309
      3918.00   0.00967054
      3919.00   0.00967797
      3920.00   0.00968538
      3921.00   0.00969277
      3922.00   0.00970015
      3923.00   0.00970750
      3924.00   0.00971483
      3925.00   0.00972215
      3926.00   0.00972944
      3927.00   0.00973672
      3928.00   0.00974397
      3929.00   0.00975121
      3930.00   0.00975842
      3931.00   0.00976562
      3932.00   0.00977279
      3933.00   0.00977995
      3934.00   0.00978708
      3935.00   0.00979419
      3936.00   0.00980128
      3937.00   0.00980835
      3938.00   0.00981540
      3939.00   0.00982243
      3940.00   0.00982943
      3941.00   0.00983642
      3942.00   0.00984338
      3943.00   0.00985032
      3944.00   0.00985724
      3945.00   0.00986413
      3946.00   0.00987101
      3947.00   0.00987786
      3948.00   0.00988469
      3949.00   0.00989149
      3950.00   0.00989827
      3951.00   0.00990503
      3952.00   0.00991177
      3953.00   0.00991848
      3954.00   0.00992517
      3955.00   0.00993184
      3956.00   0.00993848
      3957.00   0.00994510
      3958.00   0.00995169
      3959.00   0.00995826
      3960.00   0.00996481
      3961.00   0.00997133
      3962.00   0.00997782
      3963.00   0.00998429
      3964.00   0.00999074
      3965.00   0.00999716
      3966.00    0.0100036
      3967.00    0.0100099
      3968.00    0.0100163
      3969.00    0.0100226
      3970.00    0.0100289
      3971.00    0.0100352
      3972.00    0.0100414
      3973.00    0.0100476
      3974.00    0.0100538
      3975.00    0.0100600
      3976.00    0.0100661
      3977.00    0.0100722
      3978.00    0.0100783
      3979.00    0.0100844
      3980.00    0.0100904
      3981.00    0.0100964
      3982.00    0.0101024
      3983.00    0.0101083
      3984.00    0.0101143
      3985.00    0.0101202
      3986.00    0.0101260
      3987.00    0.0101319
      3988.00    0.0101377
      3989.00    0.0101435
      3990.00    0.0101492
      3991.00    0.0101549
      3992.00    0.0101606
      3993.00    0.0101663
      3994.00    0.0101719
      3995.00    0.0101775
      3996.00    0.0101831
      3997.00    0.0101887
      3998.00    0.0101942
      3999.00    0.0101997
      4000.00    0.0102051
      4001.00    0.0102106
      4002.00    0.0102160
      4003.00    0.0102214
      4004.00    0.0102267
      4005.00    0.0102320
      4006.00    0.0102373
      4007.00    0.0102425
      4008.00    0.0102478
      4009.00    0.0102530
      4010.00    0.0102581
      4011.00    0.0102632
      4012.00    0.0102683
      4013.00    0.0102734
      4014.00    0.0102784
      4015.00    0.0102834
      4016.00    0.0102884
      4017.00    0.0102933
      4018.00    0.0102982
      4019.00    0.0103031
      4020.00    0.0103079
      4021.00    0.0103128
      4022.00    0.0103175
      4023.00    0.0103223
      4024.00    0.0103270
      4025.00    0.0103317
      4026.00    0.0103363
      4027.00    0.0103409
      4028.00    0.0103455
      4029.00    0.0103500
      4030.00    0.0103545
      4031.00    0.0103590
      4032.00    0.0103634
      4033.00    0.0103678
      4034.00    0.0103722
      4035.00    0.0103765
      4036.00    0.0103809
      4037.00    0.0103851
      4038.00    0.0103894
      4039.00    0.0103936
      4040.00    0.0103977
      4041.00    0.0104018
      4042.00    0.0104059
      4043.00    0.0104100
      4044.00    0.0104140
      4045.00    0.0104180
      4046.00    0.0104220
      4047.00    0.0104259
      4048.00    0.0104298
      4049.00    0.0104337
      4050.00    0.0104375
      4051.00    0.0104413
      4052.00    0.0104451
      4053.00    0.0104488
      4054.00    0.0104525
      4055.00    0.0104562
      4056.00    0.0104598
      4057.00    0.0104634
      4058.00    0.0104670
      4059.00    0.0104705
      4060.00    0.0104741
      4061.00    0.0104775
      4062.00    0.0104810
      4063.00    0.0104844
      4064.00    0.0104878
      4065.00    0.0104911
      4066.00    0.0104944
      4067.00    0.0104977
      4068.00    0.0105010
      4069.00    0.0105042
      4070.00    0.0105074
      4071.00    0.0105106
      4072.00    0.0105137
      4073.00    0.0105168
      4074.00    0.0105199
      4075.00    0.0105230
      4076.00    0.0105260
      4077.00    0.0105290
      4078.00    0.0105319
      4079.00    0.0105348
      4080.00    0.0105377
      4081.00    0.0105406
      4082.00    0.0105435
      4083.00    0.0105463
      4084.00    0.0105491
      4085.00    0.0105518
      4086.00    0.0105545
      4087.00    0.0105572
      4088.00    0.0105599
      4089.00    0.0105625
      4090.00    0.0105651
      4091.00    0.0105677
      4092.00    0.0105703
      4093.00    0.0105728
      4094.00    0.0105753
      4095.00    0.0105778
      4096.00    0.0105802
      4097.00    0.0105826
      4098.00    0.0105850
      4099.00    0.0105874
      4100.00    0.0105897
      4101.00    0.0105920
      4102.00    0.0105943
      4103.00    0.0105966
      4104.00    0.0105988
      4105.00    0.0106010
      4106.00    0.0106032
      4107.00    0.0106053
      4108.00    0.0106074
      4109.00    0.0106095
      4110.00    0.0106116
      4111.00    0.0106136
      4112.00    0.0106157
      4113.00    0.0106177
      4114.00    0.0106196
      4115.00    0.0106216
      4116.00    0.0106235
      4117.00    0.0106254
      4118.00    0.0106272
      4119.00    0.0106291
      4120.00    0.0106309
      4121.00    0.0106327
      4122.00    0.0106344
      4123.00    0.0106362
      4124.00    0.0106379
      4125.00    0.0106396
      4126.00    0.0106413
      4127.00    0.0106429
      4128.00    0.0106445
      4129.00    0.0106461
      4130.00    0.0106477
      4131.00    0.0106492
      4132.00    0.0106508
      4133.00    0.0106523
      4134.00    0.0106538
      4135.00    0.0106552
      4136.00    0.0106566
      4137.00    0.0106581
      4138.00    0.0106594
      4139.00    0.0106608
      4140.00    0.0106622
      4141.00    0.0106635
      4142.00    0.0106648
      4143.00    0.0106661
      4144.00    0.0106673
      4145.00    0.0106685
      4146.00    0.0106697
      4147.00    0.0106709
      4148.00    0.0106721
      4149.00    0.0106732
      4150.00    0.0106744
      4151.00    0.0106755
      4152.00    0.0106765
      4153.00    0.0106776
      4154.00    0.0106786
      4155.00    0.0106797
      4156.00    0.0106807
      4157.00    0.0106816
      4158.00    0.0106826
      4159.00    0.0106835
      4160.00    0.0106844
      4161.00    0.0106853
      4162.00    0.0106862
      4163.00    0.0106871
      4164.00    0.0106879
      4165.00    0.0106887
      4166.00    0.0106895
      4167.00    0.0106903
      4168.00    0.0106911
      4169.00    0.0106918
      4170.00    0.0106925
      4171.00    0.0106932
      4172.00    0.0106939
      4173.00    0.0106946
      4174.00    0.0106952
      4175.00    0.0106958
      4176.00    0.0106964
      4177.00    0.0106970
      4178.00    0.0106976
      4179.00    0.0106981
      4180.00    0.0106987
      4181.00    0.0106992
      4182.00    0.0106997
      4183.00    0.0107002
      4184.00    0.0107006
      4185.00    0.0107011
      4186.00    0.0107015
      4187.00    0.0107019
      4188.00    0.0107023
      4189.00    0.0107027
      4190.00    0.0107031
      4191.00    0.0107034
      4192.00    0.0107037
      4193.00    0.0107040
      4194.00    0.0107043
      4195.00    0.0107046
      4196.00    0.0107049
      4197.00    0.0107051
      4198.00    0.0107053
      4199.00    0.0107056
      4200.00    0.0107058
      4201.00    0.0107059
      4202.00    0.0107061
      4203.00    0.0107063
      4204.00    0.0107064
      4205.00    0.0107065
      4206.00    0.0107066
      4207.00    0.0107067
      4208.00    0.0107068
      4209.00    0.0107069
      4210.00    0.0107069
      4211.00    0.0107069
      4212.00    0.0107070
      4213.00    0.0107070
      4214.00    0.0107070
      4215.00    0.0107069
      4216.00    0.0107069
      4217.00    0.0107068
      4218.00    0.0107068
      4219.00    0.0107067
      4220.00    0.0107066
      4221.00    0.0107065
      4222.00    0.0107064
      4223.00    0.0107063
      4224.00    0.0107061
      4225.00    0.0107060
      4226.00    0.0107058
      4227.00    0.0107056
      4228.00    0.0107054
      4229.00    0.0107052
      4230.00    0.0107050
      4231.00    0.0107047
      4232.00    0.0107045
      4233.00    0.0107043
      4234.00    0.0107040
      4235.00    0.0107037
      4236.00    0.0107034
      4237.00    0.0107031
      4238.00    0.0107028
      4239.00    0.0107025
      4240.00    0.0107021
      4241.00    0.0107018
      4242.00    0.0107014
      4243.00    0.0107011
      4244.00    0.0107007
      4245.00    0.0107003
      4246.00    0.0106999
      4247.00    0.0106995
      4248.00    0.0106991
      4249.00    0.0106986
      4250.00    0.0106982
      4251.00    0.0106977
      4252.00    0.0106973
      4253.00    0.0106968
      4254.00    0.0106963
      4255.00    0.0106958
      4256.00    0.0106953
      4257.00    0.0106948
      4258.00    0.0106943
      4259.00    0.0106938
      4260.00    0.0106932
      4261.00    0.0106927
      4262.00    0.0106921
      4263.00    0.0106916
      4264.00    0.0106910
      4265.00    0.0106904
      4266.00    0.0106898
      4267.00    0.0106892
      4268.00    0.0106886
      4269.00    0.0106880
      4270.00    0.0106874
      4271.00    0.0106867
      4272.00    0.0106861
      4273.00    0.0106854
      4274.00    0.0106848
      4275.00    0.0106841
      4276.00    0.0106834
      4277.00    0.0106828
      4278.00    0.0106821
      4279.00    0.0106814
      4280.00    0.0106807
      4281.00    0.0106800
      4282.00    0.0106792
      4283.00    0.0106785
      4284.00    0.0106778
      4285.00    0.0106770
      4286.00    0.0106763
      4287.00    0.0106755
      4288.00    0.0106748
      4289.00    0.0106740
      4290.00    0.0106732
      4291.00    0.0106725
      4292.00    0.0106717
      4293.00    0.0106709
      4294.00    0.0106701
      4295.00    0.0106693
      4296.00    0.0106685
      4297.00    0.0106677
      4298.00    0.0106668
      4299.00    0.0106660
      4300.00    0.0106652
      4301.00    0.0106643
      4302.00    0.0106635
      4303.00    0.0106626
      4304.00    0.0106618
      4305.00    0.0106609
      4306.00    0.0106600
      4307.00    0.0106592
      4308.00    0.0106583
      4309.00    0.0106574
      4310.00    0.0106565
      4311.00    0.0106556
      4312.00    0.0106547
      4313.00    0.0106538
      4314.00    0.0106529
      4315.00    0.0106520
      4316.00    0.0106511
      4317.00    0.0106502
      4318.00    0.0106493
      4319.00    0.0106484
      4320.00    0.0106474
      4321.00    0.0106465
      4322.00    0.0106456
      4323.00    0.0106446
      4324.00    0.0106437
      4325.00    0.0106427
      4326.00    0.0106418
      4327.00    0.0106408
      4328.00    0.0106399
      4329.00    0.0106389
      4330.00    0.0106380
      4331.00    0.0106370
      4332.00    0.0106360
      4333.00    0.0106351
      4334.00    0.0106341
      4335.00    0.0106331
      4336.00    0.0106321
      4337.00    0.0106312
      4338.00    0.0106302
      4339.00    0.0106292
      4340.00    0.0106282
      4341.00    0.0106272
      4342.00    0.0106262
      4343.00    0.0106252
      4344.00    0.0106242
      4345.00    0.0106232
      4346.00    0.0106222
      4347.00    0.0106212
      4348.00    0.0106202
      4349.00    0.0106192
      4350.00    0.0106182
      4351.00    0.0106172
      4352.00    0.0106162
      4353.00    0.0106152
      4354.00    0.0106142
      4355.00    0.0106132
      4356.00    0.0106122
      4357.00    0.0106112
      4358.00    0.0106102
      4359.00    0.0106092
      4360.00    0.0106082
      4361.00    0.0106072
      4362.00    0.0106062
      4363.00    0.0106052
      4364.00    0.0106042
      4365.00    0.0106031
      4366.00    0.0106021
      4367.00    0.0106011
      4368.00    0.0106001
      4369.00    0.0105991
      4370.00    0.0105981
      4371.00    0.0105971
      4372.00    0.0105961
      4373.00    0.0105951
      4374.00    0.0105941
      4375.00    0.0105931
      4376.00    0.0105921
      4377.00    0.0105911
      4378.00    0.0105901
      4379.00    0.0105891
      4380.00    0.0105881
      4381.00    0.0105871
      4382.00    0.0105861
      4383.00    0.0105852
      4384.00    0.0105842
      4385.00    0.0105832
      4386.00    0.0105822
      4387.00    0.0105812
      4388.00    0.0105802
      4389.00    0.0105793
      4390.00    0.0105783
      4391.00    0.0105773
      4392.00    0.0105764
      4393.00    0.0105754
      4394.00    0.0105744
      4395.00    0.0105735
      4396.00    0.0105725
      4397.00    0.0105716
      4398.00    0.0105706
      4399.00    0.0105697
      4400.00    0.0105687
      4401.00    0.0105678
      4402.00    0.0105669
      4403.00    0.0105659
      4404.00    0.0105650
      4405.00    0.0105641
      4406.00    0.0105631
      4407.00    0.0105622
      4408.00    0.0105613
      4409.00    0.0105604
      4410.00    0.0105595
      4411.00    0.0105586
      4412.00    0.0105577
      4413.00    0.0105568
      4414.00    0.0105559
      4415.00    0.0105551
      4416.00    0.0105542
      4417.00    0.0105533
      4418.00    0.0105524
      4419.00    0.0105516
      4420.00    0.0105507
      4421.00    0.0105499
      4422.00    0.0105490
      4423.00    0.0105482
      4424.00    0.0105474
      4425.00    0.0105465
      4426.00    0.0105457
      4427.00    0.0105449
      4428.00    0.0105441
      4429.00    0.0105433
      4430.00    0.0105425
      4431.00    0.0105417
      4432.00    0.0105409
      4433.00    0.0105401
      4434.00    0.0105393
      4435.00    0.0105386
      4436.00    0.0105378
      4437.00    0.0105371
      4438.00    0.0105363
      4439.00    0.0105356
      4440.00    0.0105348
      4441.00    0.0105341
      4442.00    0.0105334
      4443.00    0.0105327
      4444.00    0.0105320
      4445.00    0.0105313
      4446.00    0.0105306
      4447.00    0.0105299
      4448.00    0.0105292
      4449.00    0.0105286
      4450.00    0.0105279
      4451.00    0.0105273
      4452.00    0.0105266
      4453.00    0.0105260
      4454.00    0.0105253
      4455.00    0.0105247
      4456.00    0.0105241
      4457.00    0.0105235
      4458.00    0.0105229
      4459.00    0.0105223
      4460.00    0.0105217
      4461.00    0.0105211
      4462.00    0.0105206
      4463.00    0.0105200
      4464.00    0.0105194
      4465.00    0.0105189
      4466.00    0.0105183
      4467.00    0.0105178
      4468.00    0.0105173
      4469.00    0.0105167
      4470.00    0.0105162
      4471.00    0.0105157
      4472.00    0.0105152
      4473.00    0.0105147
      4474.00    0.0105142
      4475.00    0.0105137
      4476.00    0.0105132
      4477.00    0.0105127
      4478.00    0.0105122
      4479.00    0.0105117
      4480.00    0.0105113
      4481.00    0.0105108
      4482.00    0.0105103
      4483.00    0.0105099
      4484.00    0.0105094
      4485.00    0.0105090
      4486.00    0.0105085
      4487.00    0.0105081
      4488.00    0.0105077
      4489.00    0.0105072
      4490.00    0.0105068
      4491.00    0.0105064
      4492.00    0.0105060
      4493.00    0.0105055
      4494.00    0.0105051
      4495.00    0.0105047
      4496.00    0.0105043
      4497.00    0.0105039
      4498.00    0.0105035
      4499.00    0.0105031
      4500.00    0.0105027
      4501.00    0.0105023
      4502.00    0.0105019
      4503.00    0.0105016
      4504.00    0.0105012
      4505.00    0.0105008
      4506.00    0.0105004
      4507.00    0.0105000
      4508.00    0.0104997
      4509.00    0.0104993
      4510.00    0.0104989
      4511.00    0.0104986
      4512.00    0.0104982
      4513.00    0.0104978
      4514.00    0.0104975
      4515.00    0.0104971
      4516.00    0.0104967
      4517.00    0.0104964
      4518.00    0.0104960
      4519.00    0.0104957
      4520.00    0.0104953
      4521.00    0.0104950
      4522.00    0.0104946
      4523.00    0.0104943
      4524.00    0.0104939
      4525.00    0.0104936
      4526.00    0.0104932
      4527.00    0.0104928
      4528.00    0.0104925
      4529.00    0.0104921
      4530.00    0.0104918
      4531.00    0.0104914
      4532.00    0.0104911
      4533.00    0.0104907
      4534.00    0.0104904
      4535.00    0.0104900
      4536.00    0.0104897
      4537.00    0.0104893
      4538.00    0.0104890
      4539.00    0.0104886
      4540.00    0.0104883
      4541.00    0.0104879
      4542.00    0.0104876
      4543.00    0.0104872
      4544.00    0.0104869
      4545.00    0.0104865
      4546.00    0.0104861
      4547.00    0.0104858
      4548.00    0.0104854
      4549.00    0.0104850
      4550.00    0.0104847
      4551.00    0.0104843
      4552.00    0.0104839
      4553.00    0.0104835
      4554.00    0.0104832
      4555.00    0.0104828
      4556.00    0.0104824
      4557.00    0.0104820
      4558.00    0.0104816
      4559.00    0.0104812
      4560.00    0.0104809
      4561.00    0.0104805
      4562.00    0.0104801
      4563.00    0.0104797
      4564.00    0.0104793
      4565.00    0.0104788
      4566.00    0.0104784
      4567.00    0.0104780
      4568.00    0.0104776
      4569.00    0.0104772
      4570.00    0.0104768
      4571.00    0.0104763
      4572.00    0.0104759
      4573.00    0.0104755
      4574.00    0.0104750
      4575.00    0.0104746
      4576.00    0.0104741
      4577.00    0.0104737
      4578.00    0.0104732
      4579.00    0.0104727
      4580.00    0.0104723
      4581.00    0.0104718
      4582.00    0.0104713
      4583.00    0.0104708
      4584.00    0.0104704
      4585.00    0.0104699
      4586.00    0.0104694
      4587.00    0.0104689
      4588.00    0.0104683
      4589.00    0.0104678
      4590.00    0.0104673
      4591.00    0.0104668
      4592.00    0.0104663
      4593.00    0.0104657
      4594.00    0.0104652
      4595.00    0.0104646
      4596.00    0.0104641
      4597.00    0.0104635
      4598.00    0.0104629
      4599.00    0.0104624
      4600.00    0.0104618
      4601.00    0.0104612
      4602.00    0.0104606
      4603.00    0.0104600
      4604.00    0.0104594
      4605.00    0.0104588
      4606.00    0.0104581
      4607.00    0.0104575
      4608.00    0.0104569
      4609.00    0.0104562
      4610.00    0.0104556
      4611.00    0.0104549
      4612.00    0.0104542
      4613.00    0.0104536
      4614.00    0.0104529
      4615.00    0.0104522
      4616.00    0.0104515
      4617.00    0.0104508
      4618.00    0.0104501
      4619.00    0.0104493
      4620.00    0.0104486
      4621.00    0.0104478
      4622.00    0.0104471
      4623.00    0.0104463
      4624.00    0.0104456
      4625.00    0.0104448
      4626.00    0.0104440
      4627.00    0.0104432
      4628.00    0.0104424
      4629.00    0.0104416
      4630.00    0.0104408
      4631.00    0.0104399
      4632.00    0.0104391
      4633.00    0.0104382
      4634.00    0.0104374
      4635.00    0.0104365
      4636.00    0.0104356
      4637.00    0.0104347
      4638.00    0.0104338
      4639.00    0.0104329
      4640.00    0.0104320
      4641.00    0.0104310
      4642.00    0.0104301
      4643.00    0.0104291
      4644.00    0.0104281
      4645.00    0.0104272
      4646.00    0.0104262
      4647.00    0.0104252
      4648.00    0.0104242
      4649.00    0.0104231
      4650.00    0.0104221
      4651.00    0.0104211
      4652.00    0.0104200
      4653.00    0.0104189
      4654.00    0.0104178
      4655.00    0.0104168
      4656.00    0.0104157
      4657.00    0.0104145
      4658.00    0.0104134
      4659.00    0.0104123
      4660.00    0.0104111
      4661.00    0.0104099
      4662.00    0.0104088
      4663.00    0.0104076
      4664.00    0.0104064
      4665.00    0.0104052
      4666.00    0.0104039
      4667.00    0.0104027
      4668.00    0.0104015
      4669.00    0.0104002
      4670.00    0.0103989
      4671.00    0.0103976
      4672.00    0.0103963
      4673.00    0.0103950
      4674.00    0.0103937
      4675.00    0.0103924
      4676.00    0.0103910
      4677.00    0.0103897
      4678.00    0.0103883
      4679.00    0.0103869
      4680.00    0.0103856
      4681.00    0.0103842
      4682.00    0.0103827
      4683.00    0.0103813
      4684.00    0.0103799
      4685.00    0.0103784
      4686.00    0.0103770
      4687.00    0.0103755
      4688.00    0.0103740
      4689.00    0.0103725
      4690.00    0.0103710
      4691.00    0.0103695
      4692.00    0.0103680
      4693.00    0.0103664
      4694.00    0.0103649
      4695.00    0.0103633
      4696.00    0.0103617
      4697.00    0.0103602
      4698.00    0.0103586
      4699.00    0.0103570
      4700.00    0.0103553
      4701.00    0.0103537
      4702.00    0.0103521
      4703.00    0.0103504
      4704.00    0.0103487
      4705.00    0.0103471
      4706.00    0.0103454
      4707.00    0.0103437
      4708.00    0.0103420
      4709.00    0.0103402
      4710.00    0.0103385
      4711.00    0.0103368
      4712.00    0.0103350
      4713.00    0.0103332
      4714.00    0.0103314
      4715.00    0.0103297
      4716.00    0.0103279
      4717.00    0.0103260
      4718.00    0.0103242
      4719.00    0.0103224
      4720.00    0.0103205
      4721.00    0.0103187
      4722.00    0.0103168
      4723.00    0.0103149
      4724.00    0.0103130
      4725.00    0.0103111
      4726.00    0.0103092
      4727.00    0.0103073
      4728.00    0.0103053
      4729.00    0.0103034
      4730.00    0.0103014
      4731.00    0.0102995
      4732.00    0.0102975
      4733.00    0.0102955
      4734.00    0.0102935
      4735.00    0.0102915
      4736.00    0.0102894
      4737.00    0.0102874
      4738.00    0.0102854
      4739.00    0.0102833
      4740.00    0.0102812
      4741.00    0.0102791
      4742.00    0.0102771
      4743.00    0.0102750
      4744.00    0.0102728
      4745.00    0.0102707
      4746.00    0.0102686
      4747.00    0.0102664
      4748.00    0.0102643
      4749.00    0.0102621
      4750.00    0.0102599
      4751.00    0.0102577
      4752.00    0.0102555
      4753.00    0.0102533
      4754.00    0.0102511
      4755.00    0.0102489
      4756.00    0.0102466
      4757.00    0.0102444
      4758.00    0.0102421
      4759.00    0.0102398
      4760.00    0.0102375
      4761.00    0.0102352
      4762.00    0.0102329
      4763.00    0.0102306
      4764.00    0.0102283
      4765.00    0.0102259
      4766.00    0.0102236
      4767.00    0.0102212
      4768.00    0.0102188
      4769.00    0.0102165
      4770.00    0.0102141
      4771.00    0.0102116
      4772.00    0.0102092
      4773.00    0.0102068
      4774.00    0.0102044
      4775.00    0.0102019
      4776.00    0.0101995
      4777.00    0.0101970
      4778.00    0.0101945
      4779.00    0.0101920
      4780.00    0.0101895
      4781.00    0.0101870
      4782.00    0.0101845
      4783.00    0.0101819
      4784.00    0.0101794
      4785.00    0.0101768
      4786.00    0.0101743
      4787.00    0.0101717
      4788.00    0.0101691
      4789.00    0.0101665
      4790.00    0.0101639
      4791.00    0.0101613
      4792.00    0.0101587
      4793.00    0.0101560
      4794.00    0.0101534
      4795.00    0.0101507
      4796.00    0.0101481
      4797.00    0.0101454
      4798.00    0.0101427
      4799.00    0.0101400
      4800.00    0.0101373
      4801.00    0.0101346
      4802.00    0.0101318
      4803.00    0.0101291
      4804.00    0.0101263
      4805.00    0.0101236
      4806.00    0.0101208
      4807.00    0.0101180
      4808.00    0.0101152
      4809.00    0.0101124
      4810.00    0.0101096
      4811.00    0.0101068
      4812.00    0.0101039
      4813.00    0.0101011
      4814.00    0.0100982
      4815.00    0.0100954
      4816.00    0.0100925
      4817.00    0.0100896
      4818.00    0.0100867
      4819.00    0.0100838
      4820.00    0.0100809
      4821.00    0.0100780
      4822.00    0.0100750
      4823.00    0.0100721
      4824.00    0.0100691
      4825.00    0.0100662
      4826.00    0.0100632
      4827.00    0.0100602
      4828.00    0.0100572
      4829.00    0.0100542
      4830.00    0.0100512
      4831.00    0.0100482
      4832.00    0.0100451
      4833.00    0.0100421
      4834.00    0.0100390
      4835.00    0.0100360
      4836.00    0.0100329
      4837.00    0.0100298
      4838.00    0.0100267
      4839.00    0.0100236
      4840.00    0.0100205
      4841.00    0.0100174
      4842.00    0.0100142
      4843.00    0.0100111
      4844.00    0.0100079
      4845.00    0.0100048
      4846.00    0.0100016
      4847.00   0.00999840
      4848.00   0.00999521
      4849.00   0.00999200
      4850.00   0.00998879
      4851.00   0.00998556
      4852.00   0.00998233
      4853.00   0.00997909
      4854.00   0.00997583
      4855.00   0.00997257
      4856.00   0.00996930
      4857.00   0.00996602
      4858.00   0.00996273
      4859.00   0.00995943
      4860.00   0.00995611
      4861.00   0.00995279
      4862.00   0.00994946
      4863.00   0.00994612
      4864.00   0.00994277
      4865.00   0.00993941
      4866.00   0.00993604
      4867.00   0.00993267
      4868.00   0.00992928
      4869.00   0.00992588
      4870.00   0.00992247
      4871.00   0.00991906
      4872.00   0.00991563
      4873.00   0.00991220
      4874.00   0.00990875
      4875.00   0.00990530
      4876.00   0.00990184
      4877.00   0.00989837
      4878.00   0.00989488
      4879.00   0.00989139
      4880.00   0.00988789
      4881.00   0.00988438
      4882.00   0.00988087
      4883.00   0.00987734
      4884.00   0.00987380
      4885.00   0.00987026
      4886.00   0.00986670
      4887.00   0.00986314
      4888.00   0.00985957
      4889.00   0.00985598
      4890.00   0.00985239
      4891.00   0.00984879
      4892.00   0.00984519
      4893.00   0.00984157
      4894.00   0.00983794
      4895.00   0.00983431
      4896.00   0.00983066
      4897.00   0.00982701
      4898.00   0.00982335
      4899.00   0.00981968
      4900.00   0.00981600
      4901.00   0.00981232
      4902.00   0.00980862
      4903.00   0.00980492
      4904.00   0.00980120
      4905.00   0.00979748
      4906.00   0.00979375
      4907.00   0.00979001
      4908.00   0.00978627
      4909.00   0.00978251
      4910.00   0.00977875
      4911.00   0.00977498
      4912.00   0.00977120
      4913.00   0.00976741
      4914.00   0.00976361
      4915.00   0.00975980
      4916.00   0.00975599
      4917.00   0.00975217
      4918.00   0.00974834
      4919.00   0.00974450
      4920.00   0.00974065
      4921.00   0.00973680
      4922.00   0.00973294
      4923.00   0.00972906
      4924.00   0.00972519
      4925.00   0.00972130
      4926.00   0.00971740
      4927.00   0.00971350
      4928.00   0.00970959
      4929.00   0.00970567
      4930.00   0.00970174
      4931.00   0.00969781
      4932.00   0.00969387
      4933.00   0.00968992
      4934.00   0.00968596
      4935.00   0.00968199
      4936.00   0.00967802
      4937.00   0.00967404
      4938.00   0.00967005
      4939.00   0.00966605
      4940.00   0.00966205
      4941.00   0.00965804
      4942.00   0.00965402
      4943.00   0.00964999
      4944.00   0.00964596
      4945.00   0.00964191
      4946.00   0.00963786
      4947.00   0.00963381
      4948.00   0.00962974
      4949.00   0.00962567
      4950.00   0.00962159
      4951.00   0.00961750
      4952.00   0.00961341
      4953.00   0.00960931
      4954.00   0.00960520
      4955.00   0.00960108
      4956.00   0.00959696
      4957.00   0.00959283
      4958.00   0.00958869
      4959.00   0.00958455
      4960.00   0.00958040
      4961.00   0.00957624
      4962.00   0.00957207
      4963.00   0.00956790
      4964.00   0.00956372
      4965.00   0.00955953
      4966.00   0.00955534
      4967.00   0.00955114
      4968.00   0.00954693
      4969.00   0.00954271
      4970.00   0.00953849
      4971.00   0.00953426
      4972.00   0.00953003
      4973.00   0.00952579
      4974.00   0.00952154
      4975.00   0.00951728
      4976.00   0.00951302
      4977.00   0.00950875
      4978.00   0.00950447
      4979.00   0.00950019
      4980.00   0.00949590
      4981.00   0.00949161
      4982.00   0.00948731
      4983.00   0.00948300
      4984.00   0.00947868
      4985.00   0.00947436
      4986.00   0.00947003
      4987.00   0.00946570
      4988.00   0.00946136
      4989.00   0.00945701
      4990.00   0.00945266
      4991.00   0.00944830
      4992.00   0.00944393
      4993.00   0.00943956
      4994.00   0.00943518
      4995.00   0.00943079
      4996.00   0.00942640
      4997.00   0.00942201
      4998.00   0.00941760
      4999.00   0.00941319
      5000.00   0.00940878
      5001.00   0.00940436
      5002.00   0.00939993
      5003.00   0.00939549
      5004.00   0.00939106
      5005.00   0.00938661
      5006.00   0.00938216
      5007.00   0.00937770
      5008.00   0.00937324
      5009.00   0.00936877
      5010.00   0.00936429
      5011.00   0.00935981
      5012.00   0.00935532
      5013.00   0.00935083
      5014.00   0.00934633
      5015.00   0.00934183
      5016.00   0.00933732
      5017.00   0.00933280
      5018.00   0.00932828
      5019.00   0.00932376
      5020.00   0.00931923
      5021.00   0.00931469
      5022.00   0.00931014
      5023.00   0.00930560
      5024.00   0.00930104
      5025.00   0.00929648
      5026.00   0.00929192
      5027.00   0.00928735
      5028.00   0.00928277
      5029.00   0.00927819
      5030.00   0.00927360
      5031.00   0.00926901
      5032.00   0.00926441
      5033.00   0.00925981
      5034.00   0.00925521
      5035.00   0.00925059
      5036.00   0.00924598
      5037.00   0.00924135
      5038.00   0.00923672
      5039.00   0.00923209
      5040.00   0.00922745
      5041.00   0.00922281
      5042.00   0.00921816
      5043.00   0.00921351
      5044.00   0.00920885
      5045.00   0.00920419
      5046.00   0.00919952
      5047.00   0.00919485
      5048.00   0.00919017
      5049.00   0.00918549
      5050.00   0.00918080
      5051.00   0.00917611
      5052.00   0.00917141
      5053.00   0.00916671
      5054.00   0.00916200
      5055.00   0.00915729
      5056.00   0.00915258
      5057.00   0.00914786
      5058.00   0.00914313
      5059.00   0.00913840
      5060.00   0.00913367
      5061.00   0.00912893
      5062.00   0.00912419
      5063.00   0.00911944
      5064.00   0.00911469
      5065.00   0.00910993
      5066.00   0.00910517
      5067.00   0.00910041
      5068.00   0.00909564
      5069.00   0.00909086
      5070.00   0.00908608
      5071.00   0.00908130
      5072.00   0.00907652
      5073.00   0.00907173
      5074.00   0.00906693
      5075.00   0.00906213
      5076.00   0.00905733
      5077.00   0.00905252
      5078.00   0.00904771
      5079.00   0.00904290
      5080.00   0.00903808
      5081.00   0.00903325
      5082.00   0.00902842
      5083.00   0.00902359
      5084.00   0.00901876
      5085.00   0.00901392
      5086.00   0.00900908
      5087.00   0.00900423
      5088.00   0.00899938
      5089.00   0.00899452
      5090.00   0.00898966
      5091.00   0.00898480
      5092.00   0.00897993
      5093.00   0.00897506
      5094.00   0.00897019
      5095.00   0.00896531
      5096.00   0.00896043
      5097.00   0.00895555
      5098.00   0.00895066
      5099.00   0.00894576
      5100.00   0.00894087
      5101.00   0.00893597
      5102.00   0.00893106
      5103.00   0.00892616
      5104.00   0.00892125
      5105.00   0.00891633
      5106.00   0.00891142
      5107.00   0.00890650
      5108.00   0.00890157
      5109.00   0.00889665
      5110.00   0.00889171
      5111.00   0.00888678
      5112.00   0.00888184
      5113.00   0.00887690
      5114.00   0.00887196
      5115.00   0.00886701
      5116.00   0.00886206
      5117.00   0.00885711
      5118.00   0.00885215
      5119.00   0.00884719
      5120.00   0.00884222
      5121.00   0.00883726
      5122.00   0.00883229
      5123.00   0.00882731
      5124.00   0.00882234
      5125.00   0.00881736
      5126.00   0.00881238
      5127.00   0.00880739
      5128.00   0.00880241
      5129.00   0.00879741
      5130.00   0.00879242
      5131.00   0.00878742
      5132.00   0.00878242
      5133.00   0.00877742
      5134.00   0.00877242
      5135.00   0.00876741
      5136.00   0.00876240
      5137.00   0.00875738
      5138.00   0.00875237
      5139.00   0.00874735
      5140.00   0.00874232
      5141.00   0.00873730
      5142.00   0.00873227
      5143.00   0.00872724
      5144.00   0.00872221
      5145.00   0.00871717
      5146.00   0.00871214
      5147.00   0.00870709
      5148.00   0.00870205
      5149.00   0.00869701
      5150.00   0.00869196
      5151.00   0.00868691
      5152.00   0.00868186
      5153.00   0.00867680
      5154.00   0.00867174
      5155.00   0.00866668
      5156.00   0.00866162
      5157.00   0.00865656
      5158.00   0.00865149
      5159.00   0.00864642
      5160.00   0.00864135
      5161.00   0.00863627
      5162.00   0.00863120
      5163.00   0.00862612
      5164.00   0.00862104
      5165.00   0.00861595
      5166.00   0.00861087
      5167.00   0.00860578
      5168.00   0.00860069
      5169.00   0.00859560
      5170.00   0.00859051
      5171.00   0.00858541
      5172.00   0.00858032
      5173.00   0.00857522
      5174.00   0.00857012
      5175.00   0.00856501
      5176.00   0.00855991
      5177.00   0.00855480
      5178.00   0.00854969
      5179.00   0.00854458
      5180.00   0.00853947
      5181.00   0.00853436
      5182.00   0.00852924
      5183.00   0.00852412
      5184.00   0.00851900
      5185.00   0.00851388
      5186.00   0.00850876
      5187.00   0.00850363
      5188.00   0.00849851
      5189.00   0.00849338
      5190.00   0.00848825
      5191.00   0.00848312
      5192.00   0.00847799
      5193.00   0.00847285
      5194.00   0.00846772
      5195.00   0.00846258
      5196.00   0.00845744
      5197.00   0.00845230
      5198.00   0.00844716
      5199.00   0.00844202
      5200.00   0.00843687
      5201.00   0.00843173
      5202.00   0.00842658
      5203.00   0.00842143
      5204.00   0.00841628
      5205.00   0.00841113
      5206.00   0.00840598
      5207.00   0.00840083
      5208.00   0.00839567
      5209.00   0.00839052
      5210.00   0.00838536
      5211.00   0.00838020
      5212.00   0.00837504
      5213.00   0.00836988
      5214.00   0.00836472
      5215.00   0.00835956
      5216.00   0.00835440
      5217.00   0.00834923
      5218.00   0.00834407
      5219.00   0.00833890
      5220.00   0.00833374
      5221.00   0.00832857
      5222.00   0.00832340
      5223.00   0.00831823
      5224.00   0.00831306
      5225.00   0.00830789
      5226.00   0.00830272
      5227.00   0.00829754
      5228.00   0.00829237
      5229.00   0.00828720
      5230.00   0.00828202
      5231.00   0.00827684
      5232.00   0.00827167
      5233.00   0.00826649
      5234.00   0.00826131
      5235.00   0.00825614
      5236.00   0.00825096
      5237.00   0.00824578
      5238.00   0.00824060
      5239.00   0.00823542
      5240.00   0.00823024
      5241.00   0.00822506
      5242.00   0.00821987
      5243.00   0.00821469
      5244.00   0.00820951
      5245.00   0.00820433
      5246.00   0.00819914
      5247.00   0.00819396
      5248.00   0.00818878
      5249.00   0.00818359
      5250.00   0.00817841
      5251.00   0.00817322
      5252.00   0.00816804
      5253.00   0.00816285
      5254.00   0.00815767
      5255.00   0.00815248
      5256.00   0.00814730
      5257.00   0.00814211
      5258.00   0.00813693
      5259.00   0.00813174
      5260.00   0.00812656
      5261.00   0.00812137
      5262.00   0.00811618
      5263.00   0.00811100
      5264.00   0.00810581
      5265.00   0.00810063
      5266.00   0.00809544
      5267.00   0.00809026
      5268.00   0.00808507
      5269.00   0.00807989
      5270.00   0.00807470
      5271.00   0.00806952
      5272.00   0.00806433
      5273.00   0.00805915
      5274.00   0.00805397
      5275.00   0.00804878
      5276.00   0.00804360
      5277.00   0.00803842
      5278.00   0.00803323
      5279.00   0.00802805
      5280.00   0.00802287
      5281.00   0.00801769
      5282.00   0.00801251
      5283.00   0.00800733
      5284.00   0.00800215
      5285.00   0.00799697
      5286.00   0.00799179
      5287.00   0.00798661
      5288.00   0.00798143
      5289.00   0.00797625
      5290.00   0.00797108
      5291.00   0.00796590
      5292.00   0.00796072
      5293.00   0.00795555
      5294.00   0.00795037
      5295.00   0.00794520
      5296.00   0.00794002
      5297.00   0.00793485
      5298.00   0.00792968
      5299.00   0.00792450
      5300.00   0.00791933
      5301.00   0.00791416
      5302.00   0.00790899
      5303.00   0.00790382
      5304.00   0.00789865
      5305.00   0.00789348
      5306.00   0.00788831
      5307.00   0.00788315
      5308.00   0.00787798
      5309.00   0.00787281
      5310.00   0.00786764
      5311.00   0.00786248
      5312.00   0.00785732
      5313.00   0.00785215
      5314.00   0.00784699
      5315.00   0.00784183
      5316.00   0.00783667
      5317.00   0.00783151
      5318.00   0.00782635
      5319.00   0.00782119
      5320.00   0.00781603
      5321.00   0.00781087
      5322.00   0.00780572
      5323.00   0.00780056
      5324.00   0.00779541
      5325.00   0.00779025
      5326.00   0.00778510
      5327.00   0.00777995
      5328.00   0.00777480
      5329.00   0.00776965
      5330.00   0.00776450
      5331.00   0.00775935
      5332.00   0.00775420
      5333.00   0.00774905
      5334.00   0.00774391
      5335.00   0.00773876
      5336.00   0.00773362
      5337.00   0.00772848
      5338.00   0.00772333
      5339.00   0.00771819
      5340.00   0.00771305
      5341.00   0.00770792
      5342.00   0.00770278
      5343.00   0.00769764
      5344.00   0.00769250
      5345.00   0.00768737
      5346.00   0.00768224
      5347.00   0.00767710
      5348.00   0.00767197
      5349.00   0.00766684
      5350.00   0.00766171
      5351.00   0.00765658
      5352.00   0.00765146
      5353.00   0.00764633
      5354.00   0.00764121
      5355.00   0.00763608
      5356.00   0.00763096
      5357.00   0.00762584
      5358.00   0.00762072
      5359.00   0.00761560
      5360.00   0.00761048
      5361.00   0.00760537
      5362.00   0.00760025
      5363.00   0.00759514
      5364.00   0.00759003
      5365.00   0.00758491
      5366.00   0.00757980
      5367.00   0.00757469
      5368.00   0.00756959
      5369.00   0.00756448
      5370.00   0.00755938
      5371.00   0.00755427
      5372.00   0.00754917
      5373.00   0.00754407
      5374.00   0.00753897
      5375.00   0.00753387
      5376.00   0.00752878
      5377.00   0.00752368
      5378.00   0.00751859
      5379.00   0.00751349
      5380.00   0.00750840
      5381.00   0.00750331
      5382.00   0.00749823
      5383.00   0.00749314
      5384.00   0.00748805
      5385.00   0.00748297
      5386.00   0.00747789
      5387.00   0.00747281
      5388.00   0.00746773
      5389.00   0.00746265
      5390.00   0.00745757
      5391.00   0.00745250
      5392.00   0.00744743
      5393.00   0.00744235
      5394.00   0.00743729
      5395.00   0.00743222
      5396.00   0.00742715
      5397.00   0.00742208
      5398.00   0.00741702
      5399.00   0.00741196
      5400.00   0.00740690
      5401.00   0.00740184
      5402.00   0.00739678
      5403.00   0.00739173
      5404.00   0.00738668
      5405.00   0.00738162
      5406.00   0.00737657
      5407.00   0.00737152
      5408.00   0.00736648
      5409.00   0.00736143
      5410.00   0.00735639
      5411.00   0.00735135
      5412.00   0.00734631
      5413.00   0.00734127
      5414.00   0.00733623
      5415.00   0.00733120
      5416.00   0.00732617
      5417.00   0.00732114
      5418.00   0.00731611
      5419.00   0.00731108
      5420.00   0.00730606
      5421.00   0.00730103
      5422.00   0.00729601
      5423.00   0.00729099
      5424.00   0.00728597
      5425.00   0.00728096
      5426.00   0.00727594
      5427.00   0.00727093
      5428.00   0.00726592
      5429.00   0.00726091
      5430.00   0.00725591
      5431.00   0.00725090
      5432.00   0.00724590
      5433.00   0.00724090
      5434.00   0.00723590
      5435.00   0.00723090
      5436.00   0.00722591
      5437.00   0.00722092
      5438.00   0.00721593
      5439.00   0.00721094
      5440.00   0.00720595
      5441.00   0.00720097
      5442.00   0.00719599
      5443.00   0.00719101
      5444.00   0.00718603
      5445.00   0.00718105
      5446.00   0.00717608
      5447.00   0.00717111
      5448.00   0.00716614
      5449.00   0.00716117
      5450.00   0.00715621
      5451.00   0.00715125
      5452.00   0.00714629
      5453.00   0.00714133
      5454.00   0.00713637
      5455.00   0.00713142
      5456.00   0.00712647
      5457.00   0.00712152
      5458.00   0.00711657
      5459.00   0.00711162
      5460.00   0.00710668
      5461.00   0.00710174
      5462.00   0.00709680
      5463.00   0.00709187
      5464.00   0.00708693
      5465.00   0.00708200
      5466.00   0.00707707
      5467.00   0.00707215
      5468.00   0.00706722
      5469.00   0.00706230
      5470.00   0.00705738
      5471.00   0.00705247
      5472.00   0.00704755
      5473.00   0.00704264
      5474.00   0.00703773
      5475.00   0.00703282
      5476.00   0.00702792
      5477.00   0.00702301
      5478.00   0.00701811
      5479.00   0.00701322
      5480.00   0.00700832
      5481.00   0.00700343
      5482.00   0.00699854
      5483.00   0.00699365
      5484.00   0.00698877
      5485.00   0.00698388
      5486.00   0.00697900
      5487.00   0.00697413
      5488.00   0.00696925
      5489.00   0.00696438
      5490.00   0.00695951
      5491.00   0.00695464
      5492.00   0.00694978
      5493.00   0.00694492
      5494.00   0.00694006
      5495.00   0.00693521
      5496.00   0.00693036
      5497.00   0.00692551
      5498.00   0.00692066
      5499.00   0.00691582
      5500.00   0.00691098
      5501.00   0.00690614
      5502.00   0.00690130
      5503.00   0.00689647
      5504.00   0.00689165
      5505.00   0.00688682
      5506.00   0.00688200
      5507.00   0.00687718
      5508.00   0.00687236
      5509.00   0.00686755
      5510.00   0.00686274
      5511.00   0.00685794
      5512.00   0.00685314
      5513.00   0.00684834
      5514.00   0.00684354
      5515.00   0.00683875
      5516.00   0.00683396
      5517.00   0.00682918
      5518.00   0.00682440
      5519.00   0.00681962
      5520.00   0.00681485
      5521.00   0.00681008
      5522.00   0.00680531
      5523.00   0.00680055
      5524.00   0.00679579
      5525.00   0.00679103
      5526.00   0.00678628
      5527.00   0.00678153
      5528.00   0.00677679
      5529.00   0.00677205
      5530.00   0.00676731
      5531.00   0.00676258
      5532.00   0.00675785
      5533.00   0.00675313
      5534.00   0.00674841
      5535.00   0.00674369
      5536.00   0.00673898
      5537.00   0.00673427
      5538.00   0.00672956
      5539.00   0.00672486
      5540.00   0.00672017
      5541.00   0.00671548
      5542.00   0.00671079
      5543.00   0.00670611
      5544.00   0.00670143
      5545.00   0.00669676
      5546.00   0.00669208
      5547.00   0.00668742
      5548.00   0.00668276
      5549.00   0.00667810
      5550.00   0.00667345
      5551.00   0.00666880
      5552.00   0.00666416
      5553.00   0.00665952
      5554.00   0.00665489
      5555.00   0.00665026
      5556.00   0.00664563
      5557.00   0.00664101
      5558.00   0.00663640
      5559.00   0.00663179
      5560.00   0.00662718
      5561.00   0.00662258
      5562.00   0.00661798
      5563.00   0.00661339
      5564.00   0.00660881
      5565.00   0.00660423
      5566.00   0.00659965
      5567.00   0.00659508
      5568.00   0.00659051
      5569.00   0.00658595
      5570.00   0.00658139
      5571.00   0.00657684
      5572.00   0.00657230
      5573.00   0.00656776
      5574.00   0.00656322
      5575.00   0.00655869
      5576.00   0.00655417
      5577.00   0.00654965
      5578.00   0.00654513
      5579.00   0.00654062
      5580.00   0.00653612
      5581.00   0.00653162
      5582.00   0.00652713
      5583.00   0.00652264
      5584.00   0.00651816
      5585.00   0.00651368
      5586.00   0.00650921
      5587.00   0.00650475
      5588.00   0.00650029
      5589.00   0.00649583
      5590.00   0.00649139
      5591.00   0.00648694
      5592.00   0.00648251
      5593.00   0.00647807
      5594.00   0.00647365
      5595.00   0.00646923
      5596.00   0.00646482
      5597.00   0.00646041
      5598.00   0.00645601
      5599.00   0.00645161
      5600.00   0.00644722
      5601.00   0.00644284
      5602.00   0.00643846
      5603.00   0.00643409
      5604.00   0.00642972
      5605.00   0.00642536
      5606.00   0.00642101
      5607.00   0.00641666
      5608.00   0.00641232
      5609.00   0.00640799
      5610.00   0.00640366
      5611.00   0.00639934
      5612.00   0.00639502
      5613.00   0.00639071
      5614.00   0.00638641
      5615.00   0.00638211
      5616.00   0.00637782
      5617.00   0.00637354
      5618.00   0.00636926
      5619.00   0.00636499
      5620.00   0.00636073
      5621.00   0.00635647
      5622.00   0.00635222
      5623.00   0.00634797
      5624.00   0.00634373
      5625.00   0.00633950
      5626.00   0.00633528
      5627.00   0.00633106
      5628.00   0.00632685
      5629.00   0.00632265
      5630.00   0.00631845
      5631.00   0.00631426
      5632.00   0.00631008
      5633.00   0.00630590
      5634.00   0.00630173
      5635.00   0.00629757
      5636.00   0.00629341
      5637.00   0.00628927
      5638.00   0.00628512
      5639.00   0.00628099
      5640.00   0.00627687
      5641.00   0.00627274
      5642.00   0.00626863
      5643.00   0.00626453
      5644.00   0.00626043
      5645.00   0.00625634
      5646.00   0.00625226
      5647.00   0.00624818
      5648.00   0.00624411
      5649.00   0.00624005
      5650.00   0.00623600
      5651.00   0.00623195
      5652.00   0.00622791
      5653.00   0.00622388
      5654.00   0.00621986
      5655.00   0.00621584
      5656.00   0.00621183
      5657.00   0.00620783
      5658.00   0.00620384
      5659.00   0.00619986
      5660.00   0.00619588
      5661.00   0.00619191
      5662.00   0.00618795
      5663.00   0.00618399
      5664.00   0.00618005
      5665.00   0.00617611
      5666.00   0.00617218
      5667.00   0.00616826
      5668.00   0.00616434
      5669.00   0.00616044
      5670.00   0.00615654
      5671.00   0.00615265
      5672.00   0.00614876
      5673.00   0.00614489
      5674.00   0.00614102
      5675.00   0.00613717
      5676.00   0.00613332
      5677.00   0.00612948
      5678.00   0.00612564
      5679.00   0.00612182
      5680.00   0.00611800
      5681.00   0.00611420
      5682.00   0.00611040
      5683.00   0.00610660
      5684.00   0.00610282
      5685.00   0.00609905
      5686.00   0.00609528
      5687.00   0.00609152
      5688.00   0.00608778
      5689.00   0.00608404
      5690.00   0.00608030
      5691.00   0.00607658
      5692.00   0.00607287
      5693.00   0.00606916
      5694.00   0.00606547
      5695.00   0.00606178
      5696.00   0.00605810
      5697.00   0.00605443
      5698.00   0.00605077
      5699.00   0.00604711
      5700.00   0.00604347
      5701.00   0.00603983
      5702.00   0.00603620
      5703.00   0.00603258
      5704.00   0.00602897
      5705.00   0.00602537
      5706.00   0.00602177
      5707.00   0.00601819
      5708.00   0.00601461
      5709.00   0.00601104
      5710.00   0.00600748
      5711.00   0.00600393
      5712.00   0.00600038
      5713.00   0.00599685
      5714.00   0.00599332
      5715.00   0.00598980
      5716.00   0.00598629
      5717.00   0.00598279
      5718.00   0.00597930
      5719.00   0.00597581
      5720.00   0.00597234
      5721.00   0.00596887
      5722.00   0.00596541
      5723.00   0.00596195
      5724.00   0.00595851
      5725.00   0.00595507
      5726.00   0.00595165
      5727.00   0.00594823
      5728.00   0.00594482
      5729.00   0.00594141
      5730.00   0.00593802
      5731.00   0.00593463
      5732.00   0.00593126
      5733.00   0.00592789
      5734.00   0.00592452
      5735.00   0.00592117
      5736.00   0.00591783
      5737.00   0.00591449
      5738.00   0.00591116
      5739.00   0.00590784
      5740.00   0.00590453
      5741.00   0.00590122
      5742.00   0.00589792
      5743.00   0.00589463
      5744.00   0.00589135
      5745.00   0.00588808
      5746.00   0.00588482
      5747.00   0.00588156
      5748.00   0.00587831
      5749.00   0.00587507
      5750.00   0.00587184
      5751.00   0.00586861
      5752.00   0.00586540
      5753.00   0.00586219
      5754.00   0.00585899
      5755.00   0.00585580
      5756.00   0.00585261
      5757.00   0.00584943
      5758.00   0.00584626
      5759.00   0.00584310
      5760.00   0.00583995
      5761.00   0.00583680
      5762.00   0.00583367
      5763.00   0.00583054
      5764.00   0.00582742
      5765.00   0.00582430
      5766.00   0.00582120
      5767.00   0.00581810
      5768.00   0.00581501
      5769.00   0.00581192
      5770.00   0.00580885
      5771.00   0.00580578
      5772.00   0.00580272
      5773.00   0.00579967
      5774.00   0.00579662
      5775.00   0.00579359
      5776.00   0.00579056
      5777.00   0.00578754
      5778.00   0.00578453
      5779.00   0.00578152
      5780.00   0.00577852
      5781.00   0.00577553
      5782.00   0.00577255
      5783.00   0.00576957
      5784.00   0.00576661
      5785.00   0.00576364
      5786.00   0.00576069
      5787.00   0.00575775
      5788.00   0.00575481
      5789.00   0.00575188
      5790.00   0.00574896
      5791.00   0.00574604
      5792.00   0.00574314
      5793.00   0.00574024
      5794.00   0.00573735
      5795.00   0.00573446
      5796.00   0.00573158
      5797.00   0.00572871
      5798.00   0.00572585
      5799.00   0.00572300
      5800.00   0.00572015
      5801.00   0.00571731
      5802.00   0.00571448
      5803.00   0.00571165
      5804.00   0.00570884
      5805.00   0.00570603
      5806.00   0.00570322
      5807.00   0.00570043
      5808.00   0.00569764
      5809.00   0.00569486
      5810.00   0.00569209
      5811.00   0.00568932
      5812.00   0.00568656
      5813.00   0.00568381
      5814.00   0.00568106
      5815.00   0.00567833
      5816.00   0.00567560
      5817.00   0.00567287
      5818.00   0.00567016
      5819.00   0.00566745
      5820.00   0.00566475
      5821.00   0.00566206
      5822.00   0.00565937
      5823.00   0.00565669
      5824.00   0.00565402
      5825.00   0.00565135
      5826.00   0.00564870
      5827.00   0.00564605
      5828.00   0.00564340
      5829.00   0.00564077
      5830.00   0.00563814
      5831.00   0.00563552
      5832.00   0.00563290
      5833.00   0.00563029
      5834.00   0.00562769
      5835.00   0.00562510
      5836.00   0.00562251
      5837.00   0.00561993
      5838.00   0.00561736
      5839.00   0.00561479
      5840.00   0.00561223
      5841.00   0.00560968
      5842.00   0.00560714
      5843.00   0.00560460
      5844.00   0.00560207
      5845.00   0.00559954
      5846.00   0.00559703
      5847.00   0.00559452
      5848.00   0.00559201
      5849.00   0.00558952
      5850.00   0.00558703
      5851.00   0.00558455
      5852.00   0.00558207
      5853.00   0.00557960
      5854.00   0.00557714
      5855.00   0.00557469
      5856.00   0.00557224
      5857.00   0.00556980
      5858.00   0.00556736
      5859.00   0.00556493
      5860.00   0.00556251
      5861.00   0.00556010
      5862.00   0.00555769
      5863.00   0.00555529
      5864.00   0.00555290
      5865.00   0.00555051
      5866.00   0.00554813
      5867.00   0.00554575
      5868.00   0.00554339
      5869.00   0.00554103
      5870.00   0.00553867
      5871.00   0.00553633
      5872.00   0.00553398
      5873.00   0.00553165
      5874.00   0.00552932
      5875.00   0.00552700
      5876.00   0.00552469
      5877.00   0.00552238
      5878.00   0.00552008
      5879.00   0.00551779
      5880.00   0.00551550
      5881.00   0.00551322
      5882.00   0.00551094
      5883.00   0.00550867
      5884.00   0.00550641
      5885.00   0.00550416
      5886.00   0.00550191
      5887.00   0.00549967
      5888.00   0.00549743
      5889.00   0.00549520
      5890.00   0.00549298
      5891.00   0.00549076
      5892.00   0.00548855
      5893.00   0.00548635
      5894.00   0.00548415
      5895.00   0.00548196
      5896.00   0.00547978
      5897.00   0.00547760
      5898.00   0.00547543
      5899.00   0.00547326
      5900.00   0.00547110
      5901.00   0.00546895
      5902.00   0.00546680
      5903.00   0.00546467
      5904.00   0.00546253
      5905.00   0.00546040
      5906.00   0.00545828
      5907.00   0.00545617
      5908.00   0.00545406
      5909.00   0.00545196
      5910.00   0.00544986
      5911.00   0.00544777
      5912.00   0.00544569
      5913.00   0.00544361
      5914.00   0.00544154
      5915.00   0.00543947
      5916.00   0.00543741
      5917.00   0.00543536
      5918.00   0.00543331
      5919.00   0.00543127
      5920.00   0.00542924
      5921.00   0.00542721
      5922.00   0.00542519
      5923.00   0.00542317
      5924.00   0.00542116
      5925.00   0.00541915
      5926.00   0.00541716
      5927.00   0.00541516
      5928.00   0.00541318
      5929.00   0.00541120
      5930.00   0.00540922
      5931.00   0.00540725
      5932.00   0.00540529
      5933.00   0.00540333
      5934.00   0.00540138
      5935.00   0.00539944
      5936.00   0.00539750
      5937.00   0.00539556
      5938.00   0.00539364
      5939.00   0.00539171
      5940.00   0.00538980
      5941.00   0.00538789
      5942.00   0.00538598
      5943.00   0.00538409
      5944.00   0.00538219
      5945.00   0.00538030
      5946.00   0.00537842
      5947.00   0.00537655
      5948.00   0.00537468
      5949.00   0.00537281
      5950.00   0.00537096
      5951.00   0.00536910
      5952.00   0.00536726
      5953.00   0.00536541
      5954.00   0.00536358
      5955.00   0.00536175
      5956.00   0.00535992
      5957.00   0.00535811
      5958.00   0.00535629
      5959.00   0.00535448
      5960.00   0.00535268
      5961.00   0.00535088
      5962.00   0.00534909
      5963.00   0.00534731
      5964.00   0.00534553
      5965.00   0.00534375
      5966.00   0.00534198
      5967.00   0.00534022
      5968.00   0.00533846
      5969.00   0.00533671
      5970.00   0.00533496
      5971.00   0.00533322
      5972.00   0.00533148
      5973.00   0.00532975
      5974.00   0.00532803
      5975.00   0.00532631
      5976.00   0.00532459
      5977.00   0.00532288
      5978.00   0.00532118
      5979.00   0.00531948
      5980.00   0.00531779
      5981.00   0.00531610
      5982.00   0.00531442
      5983.00   0.00531274
      5984.00   0.00531107
      5985.00   0.00530940
      5986.00   0.00530774
      5987.00   0.00530608
      5988.00   0.00530443
      5989.00   0.00530278
      5990.00   0.00530114
      5991.00   0.00529950
      5992.00   0.00529787
      5993.00   0.00529625
      5994.00   0.00529463
      5995.00   0.00529301
      5996.00   0.00529140
      5997.00   0.00528980
      5998.00   0.00528820
      5999.00   0.00528660
      6000.00   0.00528501
      6001.00   0.00528343
      6002.00   0.00528185
      6003.00   0.00528027
      6004.00   0.00527870
      6005.00   0.00527714
      6006.00   0.00527558
      6007.00   0.00527402
      6008.00   0.00527247
      6009.00   0.00527093
      6010.00   0.00526938
      6011.00   0.00526785
      6012.00   0.00526632
      6013.00   0.00526479
      6014.00   0.00526327
      6015.00   0.00526176
      6016.00   0.00526025
      6017.00   0.00525874
      6018.00   0.00525724
      6019.00   0.00525574
      6020.00   0.00525425
      6021.00   0.00525276
      6022.00   0.00525128
      6023.00   0.00524980
      6024.00   0.00524833
      6025.00   0.00524686
      6026.00   0.00524540
      6027.00   0.00524394
      6028.00   0.00524249
      6029.00   0.00524104
      6030.00   0.00523960
      6031.00   0.00523815
      6032.00   0.00523672
      6033.00   0.00523529
      6034.00   0.00523386
      6035.00   0.00523244
      6036.00   0.00523103
      6037.00   0.00522961
      6038.00   0.00522821
      6039.00   0.00522680
      6040.00   0.00522540
      6041.00   0.00522401
      6042.00   0.00522262
      6043.00   0.00522124
      6044.00   0.00521986
      6045.00   0.00521848
      6046.00   0.00521711
      6047.00   0.00521574
      6048.00   0.00521438
      6049.00   0.00521302
      6050.00   0.00521167
      6051.00   0.00521032
      6052.00   0.00520897
      6053.00   0.00520763
      6054.00   0.00520630
      6055.00   0.00520496
      6056.00   0.00520364
      6057.00   0.00520231
      6058.00   0.00520099
      6059.00   0.00519968
      6060.00   0.00519837
      6061.00   0.00519706
      6062.00   0.00519576
      6063.00   0.00519446
      6064.00   0.00519317
      6065.00   0.00519188
      6066.00   0.00519060
      6067.00   0.00518931
      6068.00   0.00518804
      6069.00   0.00518677
      6070.00   0.00518550
      6071.00   0.00518423
      6072.00   0.00518297
      6073.00   0.00518172
      6074.00   0.00518047
      6075.00   0.00517922
      6076.00   0.00517798
      6077.00   0.00517674
      6078.00   0.00517550
      6079.00   0.00517427
      6080.00   0.00517304
      6081.00   0.00517182
      6082.00   0.00517060
      6083.00   0.00516938
      6084.00   0.00516817
      6085.00   0.00516697
      6086.00   0.00516576
      6087.00   0.00516456
      6088.00   0.00516337
      6089.00   0.00516218
      6090.00   0.00516099
      6091.00   0.00515980
      6092.00   0.00515862
      6093.00   0.00515745
      6094.00   0.00515628
      6095.00   0.00515511
      6096.00   0.00515394
      6097.00   0.00515278
      6098.00   0.00515162
      6099.00   0.00515047
      6100.00   0.00514932
      6101.00   0.00514818
      6102.00   0.00514703
      6103.00   0.00514590
      6104.00   0.00514476
      6105.00   0.00514363
      6106.00   0.00514250
      6107.00   0.00514138
      6108.00   0.00514026
      6109.00   0.00513914
      6110.00   0.00513803
      6111.00   0.00513692
      6112.00   0.00513581
      6113.00   0.00513471
      6114.00   0.00513361
      6115.00   0.00513252
      6116.00   0.00513142
      6117.00   0.00513033
      6118.00   0.00512925
      6119.00   0.00512816
      6120.00   0.00512708
      6121.00   0.00512601
      6122.00   0.00512493
      6123.00   0.00512386
      6124.00   0.00512279
      6125.00   0.00512173
      6126.00   0.00512067
      6127.00   0.00511961
      6128.00   0.00511855
      6129.00   0.00511750
      6130.00   0.00511645
      6131.00   0.00511540
      6132.00   0.00511435
      6133.00   0.00511331
      6134.00   0.00511227
      6135.00   0.00511123
      6136.00   0.00511020
      6137.00   0.00510917
      6138.00   0.00510814
      6139.00   0.00510711
      6140.00   0.00510609
      6141.00   0.00510506
      6142.00   0.00510404
      6143.00   0.00510302
      6144.00   0.00510201
      6145.00   0.00510099
      6146.00   0.00509998
      6147.00   0.00509897
      6148.00   0.00509797
      6149.00   0.00509696
      6150.00   0.00509596
      6151.00   0.00509496
      6152.00   0.00509396
      6153.00   0.00509296
      6154.00   0.00509197
      6155.00   0.00509097
      6156.00   0.00508998
      6157.00   0.00508899
      6158.00   0.00508800
      6159.00   0.00508702
      6160.00   0.00508603
      6161.00   0.00508505
      6162.00   0.00508407
      6163.00   0.00508309
      6164.00   0.00508211
      6165.00   0.00508113
      6166.00   0.00508016
      6167.00   0.00507918
      6168.00   0.00507821
      6169.00   0.00507724
      6170.00   0.00507627
      6171.00   0.00507530
      6172.00   0.00507433
      6173.00   0.00507337
      6174.00   0.00507240
      6175.00   0.00507144
      6176.00   0.00507048
      6177.00   0.00506951
      6178.00   0.00506855
      6179.00   0.00506759
      6180.00   0.00506664
      6181.00   0.00506568
      6182.00   0.00506472
      6183.00   0.00506376
      6184.00   0.00506281
      6185.00   0.00506185
      6186.00   0.00506090
      6187.00   0.00505995
      6188.00   0.00505899
      6189.00   0.00505804
      6190.00   0.00505709
      6191.00   0.00505614
      6192.00   0.00505519
      6193.00   0.00505424
      6194.00   0.00505329
      6195.00   0.00505234
      6196.00   0.00505139
      6197.00   0.00505044
      6198.00   0.00504949
      6199.00   0.00504855
      6200.00   0.00504760
      6201.00   0.00504665
      6202.00   0.00504570
      6203.00   0.00504476
      6204.00   0.00504381
      6205.00   0.00504286
      6206.00   0.00504191
      6207.00   0.00504097
      6208.00   0.00504002
      6209.00   0.00503907
      6210.00   0.00503812
      6211.00   0.00503718
      6212.00   0.00503623
      6213.00   0.00503528
      6214.00   0.00503433
      6215.00   0.00503338
      6216.00   0.00503243
      6217.00   0.00503148
      6218.00   0.00503053
      6219.00   0.00502958
      6220.00   0.00502863
      6221.00   0.00502768
      6222.00   0.00502673
      6223.00   0.00502577
      6224.00   0.00502482
      6225.00   0.00502387
      6226.00   0.00502291
      6227.00   0.00502196
      6228.00   0.00502100
      6229.00   0.00502004
      6230.00   0.00501908
      6231.00   0.00501812
      6232.00   0.00501716
      6233.00   0.00501620
      6234.00   0.00501524
      6235.00   0.00501428
      6236.00   0.00501331
      6237.00   0.00501235
      6238.00   0.00501138
      6239.00   0.00501041
      6240.00   0.00500944
      6241.00   0.00500847
      6242.00   0.00500750
      6243.00   0.00500653
      6244.00   0.00500555
      6245.00   0.00500458
      6246.00   0.00500360
      6247.00   0.00500262
      6248.00   0.00500164
      6249.00   0.00500066
      6250.00   0.00499967
      6251.00   0.00499869
      6252.00   0.00499770
      6253.00   0.00499671
      6254.00   0.00499572
      6255.00   0.00499473
      6256.00   0.00499373
      6257.00   0.00499274
      6258.00   0.00499174
      6259.00   0.00499074
      6260.00   0.00498974
      6261.00   0.00498873
      6262.00   0.00498773
      6263.00   0.00498672
      6264.00   0.00498571
      6265.00   0.00498470
      6266.00   0.00498368
      6267.00   0.00498266
      6268.00   0.00498164
      6269.00   0.00498062
      6270.00   0.00497960
      6271.00   0.00497857
      6272.00   0.00497755
      6273.00   0.00497651
      6274.00   0.00497548
      6275.00   0.00497444
      6276.00   0.00497341
      6277.00   0.00497236
      6278.00   0.00497132
      6279.00   0.00497027
      6280.00   0.00496923
      6281.00   0.00496817
      6282.00   0.00496712
      6283.00   0.00496606
      6284.00   0.00496500
      6285.00   0.00496394
      6286.00   0.00496287
      6287.00   0.00496180
      6288.00   0.00496073
      6289.00   0.00495965
      6290.00   0.00495857
      6291.00   0.00495749
      6292.00   0.00495641
      6293.00   0.00495532
      6294.00   0.00495423
      6295.00   0.00495313
      6296.00   0.00495204
      6297.00   0.00495094
      6298.00   0.00494983
      6299.00   0.00494872
      6300.00   0.00494761
      6301.00   0.00494650
      6302.00   0.00494538
      6303.00   0.00494426
      6304.00   0.00494313
      6305.00   0.00494200
      6306.00   0.00494087
      6307.00   0.00493973
      6308.00   0.00493859
      6309.00   0.00493745
      6310.00   0.00493630
      6311.00   0.00493515
      6312.00   0.00493400
      6313.00   0.00493284
      6314.00   0.00493167
      6315.00   0.00493051
      6316.00   0.00492934
      6317.00   0.00492816
      6318.00   0.00492698
      6319.00   0.00492580
      6320.00   0.00492461
      6321.00   0.00492342
      6322.00   0.00492223
      6323.00   0.00492103
      6324.00   0.00491983
      6325.00   0.00491863
      6326.00   0.00491742
      6327.00   0.00491620
      6328.00   0.00491499
      6329.00   0.00491377
      6330.00   0.00491254
      6331.00   0.00491131
      6332.00   0.00491008
      6333.00   0.00490884
      6334.00   0.00490760
      6335.00   0.00490636
      6336.00   0.00490511
      6337.00   0.00490386
      6338.00   0.00490260
      6339.00   0.00490134
      6340.00   0.00490008
      6341.00   0.00489881
      6342.00   0.00489754
      6343.00   0.00489626
      6344.00   0.00489499
      6345.00   0.00489370
      6346.00   0.00489242
      6347.00   0.00489112
      6348.00   0.00488983
      6349.00   0.00488853
      6350.00   0.00488723
      6351.00   0.00488592
      6352.00   0.00488461
      6353.00   0.00488330
      6354.00   0.00488198
      6355.00   0.00488066
      6356.00   0.00487933
      6357.00   0.00487800
      6358.00   0.00487667
      6359.00   0.00487533
      6360.00   0.00487399
      6361.00   0.00487264
      6362.00   0.00487129
      6363.00   0.00486994
      6364.00   0.00486858
      6365.00   0.00486722
      6366.00   0.00486585
      6367.00   0.00486448
      6368.00   0.00486311
      6369.00   0.00486173
      6370.00   0.00486035
      6371.00   0.00485897
      6372.00   0.00485758
      6373.00   0.00485619
      6374.00   0.00485479
      6375.00   0.00485339
      6376.00   0.00485198
      6377.00   0.00485057
      6378.00   0.00484916
      6379.00   0.00484774
      6380.00   0.00484632
      6381.00   0.00484490
      6382.00   0.00484347
      6383.00   0.00484204
      6384.00   0.00484060
      6385.00   0.00483916
      6386.00   0.00483772
      6387.00   0.00483627
      6388.00   0.00483482
      6389.00   0.00483336
      6390.00   0.00483190
      6391.00   0.00483043
      6392.00   0.00482897
      6393.00   0.00482749
      6394.00   0.00482602
      6395.00   0.00482454
      6396.00   0.00482305
      6397.00   0.00482156
      6398.00   0.00482007
      6399.00   0.00481858
      6400.00   0.00481708
      6401.00   0.00481557
      6402.00   0.00481406
      6403.00   0.00481255
      6404.00   0.00481103
      6405.00   0.00480951
      6406.00   0.00480799
      6407.00   0.00480646
      6408.00   0.00480493
      6409.00   0.00480339
      6410.00   0.00480185
      6411.00   0.00480031
      6412.00   0.00479876
      6413.00   0.00479721
      6414.00   0.00479565
      6415.00   0.00479409
      6416.00   0.00479253
      6417.00   0.00479096
      6418.00   0.00478938
      6419.00   0.00478781
      6420.00   0.00478623
      6421.00   0.00478464
      6422.00   0.00478305
      6423.00   0.00478146
      6424.00   0.00477986
      6425.00   0.00477826
      6426.00   0.00477666
      6427.00   0.00477505
      6428.00   0.00477344
      6429.00   0.00477182
      6430.00   0.00477020
      6431.00   0.00476857
      6432.00   0.00476695
      6433.00   0.00476531
      6434.00   0.00476368
      6435.00   0.00476203
      6436.00   0.00476039
      6437.00   0.00475874
      6438.00   0.00475708
      6439.00   0.00475543
      6440.00   0.00475377
      6441.00   0.00475210
      6442.00   0.00475043
      6443.00   0.00474876
      6444.00   0.00474708
      6445.00   0.00474540
      6446.00   0.00474371
      6447.00   0.00474202
      6448.00   0.00474033
      6449.00   0.00473863
      6450.00   0.00473693
      6451.00   0.00473522
      6452.00   0.00473351
      6453.00   0.00473179
      6454.00   0.00473007
      6455.00   0.00472835
      6456.00   0.00472663
      6457.00   0.00472489
      6458.00   0.00472316
      6459.00   0.00472142
      6460.00   0.00471968
      6461.00   0.00471793
      6462.00   0.00471618
      6463.00   0.00471442
      6464.00   0.00471266
      6465.00   0.00471090
      6466.00   0.00470913
      6467.00   0.00470736
      6468.00   0.00470558
      6469.00   0.00470380
      6470.00   0.00470202
      6471.00   0.00470023
      6472.00   0.00469844
      6473.00   0.00469664
      6474.00   0.00469484
      6475.00   0.00469303
      6476.00   0.00469122
      6477.00   0.00468941
      6478.00   0.00468759
      6479.00   0.00468577
      6480.00   0.00468395
      6481.00   0.00468212
      6482.00   0.00468028
      6483.00   0.00467844
      6484.00   0.00467660
      6485.00   0.00467475
      6486.00   0.00467290
      6487.00   0.00467105
      6488.00   0.00466919
      6489.00   0.00466733
      6490.00   0.00466546
      6491.00   0.00466359
      6492.00   0.00466171
      6493.00   0.00465983
      6494.00   0.00465795
      6495.00   0.00465606
      6496.00   0.00465417
      6497.00   0.00465227
      6498.00   0.00465037
      6499.00   0.00464847
      6500.00   0.00464656
      6501.00   0.00464464
      6502.00   0.00464273
      6503.00   0.00464081
      6504.00   0.00463888
      6505.00   0.00463695
      6506.00   0.00463502
      6507.00   0.00463308
      6508.00   0.00463114
      6509.00   0.00462919
      6510.00   0.00462724
      6511.00   0.00462528
      6512.00   0.00462332
      6513.00   0.00462136
      6514.00   0.00461939
      6515.00   0.00461742
      6516.00   0.00461544
      6517.00   0.00461347
      6518.00   0.00461148
      6519.00   0.00460949
      6520.00   0.00460750
      6521.00   0.00460550
      6522.00   0.00460350
      6523.00   0.00460150
      6524.00   0.00459949
      6525.00   0.00459747
      6526.00   0.00459546
      6527.00   0.00459343
      6528.00   0.00459141
      6529.00   0.00458938
      6530.00   0.00458735
      6531.00   0.00458531
      6532.00   0.00458327
      6533.00   0.00458122
      6534.00   0.00457917
      6535.00   0.00457712
      6536.00   0.00457506
      6537.00   0.00457300
      6538.00   0.00457093
      6539.00   0.00456886
      6540.00   0.00456679
      6541.00   0.00456471
      6542.00   0.00456263
      6543.00   0.00456055
      6544.00   0.00455846
      6545.00   0.00455637
      6546.00   0.00455427
      6547.00   0.00455217
      6548.00   0.00455007
      6549.00   0.00454796
      6550.00   0.00454585
      6551.00   0.00454373
      6552.00   0.00454161
      6553.00   0.00453949
      6554.00   0.00453736
      6555.00   0.00453523
      6556.00   0.00453310
      6557.00   0.00453096
      6558.00   0.00452882
      6559.00   0.00452668
      6560.00   0.00452453
      6561.00   0.00452238
      6562.00   0.00452022
      6563.00   0.00451806
      6564.00   0.00451590
      6565.00   0.00451374
      6566.00   0.00451157
      6567.00   0.00450939
      6568.00   0.00450722
      6569.00   0.00450504
      6570.00   0.00450285
      6571.00   0.00450067
      6572.00   0.00449848
      6573.00   0.00449628
      6574.00   0.00449408
      6575.00   0.00449188
      6576.00   0.00448968
      6577.00   0.00448747
      6578.00   0.00448526
      6579.00   0.00448305
      6580.00   0.00448083
      6581.00   0.00447861
      6582.00   0.00447639
      6583.00   0.00447416
      6584.00   0.00447193
      6585.00   0.00446969
      6586.00   0.00446746
      6587.00   0.00446522
      6588.00   0.00446297
      6589.00   0.00446073
      6590.00   0.00445848
      6591.00   0.00445622
      6592.00   0.00445397
      6593.00   0.00445171
      6594.00   0.00444945
      6595.00   0.00444718
      6596.00   0.00444491
      6597.00   0.00444264
      6598.00   0.00444036
      6599.00   0.00443809
      6600.00   0.00443581
      6601.00   0.00443352
      6602.00   0.00443124
      6603.00   0.00442895
      6604.00   0.00442665
      6605.00   0.00442436
      6606.00   0.00442206
      6607.00   0.00441976
      6608.00   0.00441745
      6609.00   0.00441514
      6610.00   0.00441283
      6611.00   0.00441052
      6612.00   0.00440820
      6613.00   0.00440588
      6614.00   0.00440356
      6615.00   0.00440123
      6616.00   0.00439891
      6617.00   0.00439658
      6618.00   0.00439424
      6619.00   0.00439191
      6620.00   0.00438957
      6621.00   0.00438723
      6622.00   0.00438488
      6623.00   0.00438253
      6624.00   0.00438019
      6625.00   0.00437783
      6626.00   0.00437548
      6627.00   0.00437312
      6628.00   0.00437076
      6629.00   0.00436840
      6630.00   0.00436603
      6631.00   0.00436366
      6632.00   0.00436129
      6633.00   0.00435892
      6634.00   0.00435654
      6635.00   0.00435416
      6636.00   0.00435178
      6637.00   0.00434940
      6638.00   0.00434701
      6639.00   0.00434462
      6640.00   0.00434223
      6641.00   0.00433984
      6642.00   0.00433744
      6643.00   0.00433504
      6644.00   0.00433264
      6645.00   0.00433024
      6646.00   0.00432783
      6647.00   0.00432542
      6648.00   0.00432301
      6649.00   0.00432060
      6650.00   0.00431818
      6651.00   0.00431576
      6652.00   0.00431334
      6653.00   0.00431092
      6654.00   0.00430850
      6655.00   0.00430607
      6656.00   0.00430364
      6657.00   0.00430121
      6658.00   0.00429878
      6659.00   0.00429634
      6660.00   0.00429390
      6661.00   0.00429146
      6662.00   0.00428902
      6663.00   0.00428657
      6664.00   0.00428413
      6665.00   0.00428168
      6666.00   0.00427923
      6667.00   0.00427677
      6668.00   0.00427432
      6669.00   0.00427186
      6670.00   0.00426940
      6671.00   0.00426694
      6672.00   0.00426448
      6673.00   0.00426201
      6674.00   0.00425954
      6675.00   0.00425708
      6676.00   0.00425460
      6677.00   0.00425213
      6678.00   0.00424966
      6679.00   0.00424718
      6680.00   0.00424470
      6681.00   0.00424222
      6682.00   0.00423973
      6683.00   0.00423725
      6684.00   0.00423476
      6685.00   0.00423227
      6686.00   0.00422978
      6687.00   0.00422729
      6688.00   0.00422480
      6689.00   0.00422230
      6690.00   0.00421980
      6691.00   0.00421730
      6692.00   0.00421480
      6693.00   0.00421230
      6694.00   0.00420980
      6695.00   0.00420729
      6696.00   0.00420478
      6697.00   0.00420227
      6698.00   0.00419976
      6699.00   0.00419725
      6700.00   0.00419473
      6701.00   0.00419222
      6702.00   0.00418970
      6703.00   0.00418718
      6704.00   0.00418466
      6705.00   0.00418214
      6706.00   0.00417961
      6707.00   0.00417708
      6708.00   0.00417456
      6709.00   0.00417203
      6710.00   0.00416950
      6711.00   0.00416697
      6712.00   0.00416443
      6713.00   0.00416190
      6714.00   0.00415936
      6715.00   0.00415683
      6716.00   0.00415429
      6717.00   0.00415174
      6718.00   0.00414920
      6719.00   0.00414666
      6720.00   0.00414412
      6721.00   0.00414157
      6722.00   0.00413902
      6723.00   0.00413647
      6724.00   0.00413392
      6725.00   0.00413137
      6726.00   0.00412882
      6727.00   0.00412627
      6728.00   0.00412371
      6729.00   0.00412116
      6730.00   0.00411860
      6731.00   0.00411604
      6732.00   0.00411348
      6733.00   0.00411092
      6734.00   0.00410836
      6735.00   0.00410579
      6736.00   0.00410323
      6737.00   0.00410066
      6738.00   0.00409809
      6739.00   0.00409553
      6740.00   0.00409296
      6741.00   0.00409039
      6742.00   0.00408782
      6743.00   0.00408524
      6744.00   0.00408267
      6745.00   0.00408009
      6746.00   0.00407752
      6747.00   0.00407494
      6748.00   0.00407236
      6749.00   0.00406979
      6750.00   0.00406721
      6751.00   0.00406462
      6752.00   0.00406204
      6753.00   0.00405946
      6754.00   0.00405687
      6755.00   0.00405429
      6756.00   0.00405170
      6757.00   0.00404912
      6758.00   0.00404653
      6759.00   0.00404394
      6760.00   0.00404135
      6761.00   0.00403876
      6762.00   0.00403617
      6763.00   0.00403358
      6764.00   0.00403098
      6765.00   0.00402839
      6766.00   0.00402579
      6767.00   0.00402320
      6768.00   0.00402060
      6769.00   0.00401800
      6770.00   0.00401541
      6771.00   0.00401281
      6772.00   0.00401021
      6773.00   0.00400760
      6774.00   0.00400500
      6775.00   0.00400240
      6776.00   0.00399980
      6777.00   0.00399719
      6778.00   0.00399459
      6779.00   0.00399198
      6780.00   0.00398938
      6781.00   0.00398677
      6782.00   0.00398416
      6783.00   0.00398156
      6784.00   0.00397895
      6785.00   0.00397634
      6786.00   0.00397373
      6787.00   0.00397112
      6788.00   0.00396851
      6789.00   0.00396589
      6790.00   0.00396328
      6791.00   0.00396067
      6792.00   0.00395806
      6793.00   0.00395544
      6794.00   0.00395283
      6795.00   0.00395021
      6796.00   0.00394759
      6797.00   0.00394498
      6798.00   0.00394236
      6799.00   0.00393974
      6800.00   0.00393713
      6801.00   0.00393451
      6802.00   0.00393189
      6803.00   0.00392927
      6804.00   0.00392665
      6805.00   0.00392403
      6806.00   0.00392141
      6807.00   0.00391879
      6808.00   0.00391616
      6809.00   0.00391354
      6810.00   0.00391092
      6811.00   0.00390830
      6812.00   0.00390567
      6813.00   0.00390305
      6814.00   0.00390043
      6815.00   0.00389780
      6816.00   0.00389518
      6817.00   0.00389255
      6818.00   0.00388993
      6819.00   0.00388730
      6820.00   0.00388468
      6821.00   0.00388205
      6822.00   0.00387942
      6823.00   0.00387680
      6824.00   0.00387417
      6825.00   0.00387154
      6826.00   0.00386891
      6827.00   0.00386629
      6828.00   0.00386366
      6829.00   0.00386103
      6830.00   0.00385840
      6831.00   0.00385577
      6832.00   0.00385315
      6833.00   0.00385052
      6834.00   0.00384789
      6835.00   0.00384526
      6836.00   0.00384263
      6837.00   0.00384000
      6838.00   0.00383737
      6839.00   0.00383474
      6840.00   0.00383211
      6841.00   0.00382948
      6842.00   0.00382685
      6843.00   0.00382422
      6844.00   0.00382159
      6845.00   0.00381896
      6846.00   0.00381633
      6847.00   0.00381370
      6848.00   0.00381107
      6849.00   0.00380845
      6850.00   0.00380582
      6851.00   0.00380318
      6852.00   0.00380056
      6853.00   0.00379793
      6854.00   0.00379530
      6855.00   0.00379267
      6856.00   0.00379004
      6857.00   0.00378741
      6858.00   0.00378478
      6859.00   0.00378215
      6860.00   0.00377952
      6861.00   0.00377689
      6862.00   0.00377426
      6863.00   0.00377164
      6864.00   0.00376901
      6865.00   0.00376638
      6866.00   0.00376375
      6867.00   0.00376112
      6868.00   0.00375849
      6869.00   0.00375587
      6870.00   0.00375324
      6871.00   0.00375061
      6872.00   0.00374799
      6873.00   0.00374536
      6874.00   0.00374273
      6875.00   0.00374011
      6876.00   0.00373748
      6877.00   0.00373486
      6878.00   0.00373223
      6879.00   0.00372961
      6880.00   0.00372698
      6881.00   0.00372436
      6882.00   0.00372174
      6883.00   0.00371911
      6884.00   0.00371649
      6885.00   0.00371387
      6886.00   0.00371125
      6887.00   0.00370863
      6888.00   0.00370600
      6889.00   0.00370338
      6890.00   0.00370076
      6891.00   0.00369814
      6892.00   0.00369552
      6893.00   0.00369291
      6894.00   0.00369029
      6895.00   0.00368767
      6896.00   0.00368505
      6897.00   0.00368243
      6898.00   0.00367982
      6899.00   0.00367720
      6900.00   0.00367459
      6901.00   0.00367197
      6902.00   0.00366936
      6903.00   0.00366674
      6904.00   0.00366413
      6905.00   0.00366152
      6906.00   0.00365891
      6907.00   0.00365630
      6908.00   0.00365369
      6909.00   0.00365108
      6910.00   0.00364847
      6911.00   0.00364586
      6912.00   0.00364325
      6913.00   0.00364064
      6914.00   0.00363804
      6915.00   0.00363543
      6916.00   0.00363283
      6917.00   0.00363022
      6918.00   0.00362762
      6919.00   0.00362502
      6920.00   0.00362241
      6921.00   0.00361981
      6922.00   0.00361721
      6923.00   0.00361461
      6924.00   0.00361201
      6925.00   0.00360941
      6926.00   0.00360682
      6927.00   0.00360422
      6928.00   0.00360163
      6929.00   0.00359903
      6930.00   0.00359644
      6931.00   0.00359384
      6932.00   0.00359125
      6933.00   0.00358866
      6934.00   0.00358607
      6935.00   0.00358348
      6936.00   0.00358089
      6937.00   0.00357830
      6938.00   0.00357572
      6939.00   0.00357313
      6940.00   0.00357055
      6941.00   0.00356796
      6942.00   0.00356538
      6943.00   0.00356280
      6944.00   0.00356022
      6945.00   0.00355764
      6946.00   0.00355506
      6947.00   0.00355248
      6948.00   0.00354990
      6949.00   0.00354733
      6950.00   0.00354475
      6951.00   0.00354218
      6952.00   0.00353961
      6953.00   0.00353703
      6954.00   0.00353446
      6955.00   0.00353189
      6956.00   0.00352933
      6957.00   0.00352676
      6958.00   0.00352419
      6959.00   0.00352163
      6960.00   0.00351906
      6961.00   0.00351650
      6962.00   0.00351394
      6963.00   0.00351138
      6964.00   0.00350882
      6965.00   0.00350626
      6966.00   0.00350370
      6967.00   0.00350114
      6968.00   0.00349859
      6969.00   0.00349603
      6970.00   0.00349348
      6971.00   0.00349093
      6972.00   0.00348838
      6973.00   0.00348583
      6974.00   0.00348328
      6975.00   0.00348074
      6976.00   0.00347819
      6977.00   0.00347565
      6978.00   0.00347310
      6979.00   0.00347056
      6980.00   0.00346802
      6981.00   0.00346548
      6982.00   0.00346294
      6983.00   0.00346041
      6984.00   0.00345787
      6985.00   0.00345534
      6986.00   0.00345281
      6987.00   0.00345027
      6988.00   0.00344775
      6989.00   0.00344522
      6990.00   0.00344269
      6991.00   0.00344016
      6992.00   0.00343764
      6993.00   0.00343512
      6994.00   0.00343259
      6995.00   0.00343007
      6996.00   0.00342755
      6997.00   0.00342504
      6998.00   0.00342252
      6999.00   0.00342001
      7000.00   0.00341749
      7001.00   0.00341498
      7002.00   0.00341247
      7003.00   0.00340996
      7004.00   0.00340745
      7005.00   0.00340495
      7006.00   0.00340244
      7007.00   0.00339994
      7008.00   0.00339744
      7009.00   0.00339494
      7010.00   0.00339244
      7011.00   0.00338994
      7012.00   0.00338745
      7013.00   0.00338495
      7014.00   0.00338246
      7015.00   0.00337997
      7016.00   0.00337748
      7017.00   0.00337499
      7018.00   0.00337250
      7019.00   0.00337002
      7020.00   0.00336754
      7021.00   0.00336506
      7022.00   0.00336258
      7023.00   0.00336010
      7024.00   0.00335762
      7025.00   0.00335515
      7026.00   0.00335267
      7027.00   0.00335020
      7028.00   0.00334773
      7029.00   0.00334526
      7030.00   0.00334279
      7031.00   0.00334033
      7032.00   0.00333787
      7033.00   0.00333540
      7034.00   0.00333294
      7035.00   0.00333049
      7036.00   0.00332803
      7037.00   0.00332557
      7038.00   0.00332312
      7039.00   0.00332067
      7040.00   0.00331822
      7041.00   0.00331577
      7042.00   0.00331333
      7043.00   0.00331088
      7044.00   0.00330844
      7045.00   0.00330600
      7046.00   0.00330356
      7047.00   0.00330112
      7048.00   0.00329869
      7049.00   0.00329625
      7050.00   0.00329382
      7051.00   0.00329139
      7052.00   0.00328896
      7053.00   0.00328654
      7054.00   0.00328411
      7055.00   0.00328169
      7056.00   0.00327927
      7057.00   0.00327685
      7058.00   0.00327443
      7059.00   0.00327202
      7060.00   0.00326961
      7061.00   0.00326719
      7062.00   0.00326479
      7063.00   0.00326238
      7064.00   0.00325997
      7065.00   0.00325757
      7066.00   0.00325517
      7067.00   0.00325277
      7068.00   0.00325037
      7069.00   0.00324798
      7070.00   0.00324558
      7071.00   0.00324319
      7072.00   0.00324080
      7073.00   0.00323841
      7074.00   0.00323603
      7075.00   0.00323364
      7076.00   0.00323126
      7077.00   0.00322888
      7078.00   0.00322651
      7079.00   0.00322413
      7080.00   0.00322176
      7081.00   0.00321939
      7082.00   0.00321702
      7083.00   0.00321465
      7084.00   0.00321229
      7085.00   0.00320992
      7086.00   0.00320756
      7087.00   0.00320520
      7088.00   0.00320285
      7089.00   0.00320049
      7090.00   0.00319814
      7091.00   0.00319579
      7092.00   0.00319344
      7093.00   0.00319110
      7094.00   0.00318875
      7095.00   0.00318641
      7096.00   0.00318407
      7097.00   0.00318174
      7098.00   0.00317940
      7099.00   0.00317707
      7100.00   0.00317474
      7101.00   0.00317241
      7102.00   0.00317009
      7103.00   0.00316776
      7104.00   0.00316544
      7105.00   0.00316312
      7106.00   0.00316081
      7107.00   0.00315849
      7108.00   0.00315618
      7109.00   0.00315387
      7110.00   0.00315156
      7111.00   0.00314926
      7112.00   0.00314696
      7113.00   0.00314465
      7114.00   0.00314236
      7115.00   0.00314006
      7116.00   0.00313777
      7117.00   0.00313548
      7118.00   0.00313319
      7119.00   0.00313090
      7120.00   0.00312862
      7121.00   0.00312634
      7122.00   0.00312406
      7123.00   0.00312178
      7124.00   0.00311951
      7125.00   0.00311723
      7126.00   0.00311496
      7127.00   0.00311270
      7128.00   0.00311043
      7129.00   0.00310817
      7130.00   0.00310591
      7131.00   0.00310365
      7132.00   0.00310140
      7133.00   0.00309915
      7134.00   0.00309690
      7135.00   0.00309465
      7136.00   0.00309241
      7137.00   0.00309016
      7138.00   0.00308792
      7139.00   0.00308569
      7140.00   0.00308345
      7141.00   0.00308122
      7142.00   0.00307899
      7143.00   0.00307677
      7144.00   0.00307454
      7145.00   0.00307232
      7146.00   0.00307010
      7147.00   0.00306788
      7148.00   0.00306567
      7149.00   0.00306346
      7150.00   0.00306125
      7151.00   0.00305904
      7152.00   0.00305684
      7153.00   0.00305463
      7154.00   0.00305243
      7155.00   0.00305024
      7156.00   0.00304804
      7157.00   0.00304585
      7158.00   0.00304366
      7159.00   0.00304147
      7160.00   0.00303929
      7161.00   0.00303711
      7162.00   0.00303493
      7163.00   0.00303275
      7164.00   0.00303057
      7165.00   0.00302840
      7166.00   0.00302623
      7167.00   0.00302406
      7168.00   0.00302190
      7169.00   0.00301973
      7170.00   0.00301757
      7171.00   0.00301541
      7172.00   0.00301326
      7173.00   0.00301110
      7174.00   0.00300895
      7175.00   0.00300680
      7176.00   0.00300466
      7177.00   0.00300251
      7178.00   0.00300037
      7179.00   0.00299823
      7180.00   0.00299609
      7181.00   0.00299396
      7182.00   0.00299183
      7183.00   0.00298970
      7184.00   0.00298757
      7185.00   0.00298544
      7186.00   0.00298332
      7187.00   0.00298120
      7188.00   0.00297908
      7189.00   0.00297697
      7190.00   0.00297485
      7191.00   0.00297274
      7192.00   0.00297063
      7193.00   0.00296852
      7194.00   0.00296642
      7195.00   0.00296432
      7196.00   0.00296222
      7197.00   0.00296012
      7198.00   0.00295802
      7199.00   0.00295593
      7200.00   0.00295384
      7201.00   0.00295175
      7202.00   0.00294966
      7203.00   0.00294758
      7204.00   0.00294550
      7205.00   0.00294342
      7206.00   0.00294134
      7207.00   0.00293926
      7208.00   0.00293719
      7209.00   0.00293512
      7210.00   0.00293305
      7211.00   0.00293098
      7212.00   0.00292892
      7213.00   0.00292686
      7214.00   0.00292480
      7215.00   0.00292274
      7216.00   0.00292068
      7217.00   0.00291863
      7218.00   0.00291658
      7219.00   0.00291453
      7220.00   0.00291248
      7221.00   0.00291044
      7222.00   0.00290839
      7223.00   0.00290635
      7224.00   0.00290431
      7225.00   0.00290228
      7226.00   0.00290024
      7227.00   0.00289821
      7228.00   0.00289618
      7229.00   0.00289415
      7230.00   0.00289213
      7231.00   0.00289011
      7232.00   0.00288808
      7233.00   0.00288607
      7234.00   0.00288405
      7235.00   0.00288203
      7236.00   0.00288002
      7237.00   0.00287801
      7238.00   0.00287600
      7239.00   0.00287399
      7240.00   0.00287199
      7241.00   0.00286999
      7242.00   0.00286799
      7243.00   0.00286599
      7244.00   0.00286399
      7245.00   0.00286200
      7246.00   0.00286000
      7247.00   0.00285801
      7248.00   0.00285602
      7249.00   0.00285404
      7250.00   0.00285205
      7251.00   0.00285007
      7252.00   0.00284809
      7253.00   0.00284611
      7254.00   0.00284414
      7255.00   0.00284216
      7256.00   0.00284019
      7257.00   0.00283822
      7258.00   0.00283625
      7259.00   0.00283429
      7260.00   0.00283232
      7261.00   0.00283036
      7262.00   0.00282840
      7263.00   0.00282644
      7264.00   0.00282449
      7265.00   0.00282253
      7266.00   0.00282058
      7267.00   0.00281863
      7268.00   0.00281668
      7269.00   0.00281473
      7270.00   0.00281279
      7271.00   0.00281085
      7272.00   0.00280890
      7273.00   0.00280697
      7274.00   0.00280503
      7275.00   0.00280309
      7276.00   0.00280116
      7277.00   0.00279923
      7278.00   0.00279730
      7279.00   0.00279537
      7280.00   0.00279345
      7281.00   0.00279152
      7282.00   0.00278960
      7283.00   0.00278768
      7284.00   0.00278576
      7285.00   0.00278385
      7286.00   0.00278193
      7287.00   0.00278002
      7288.00   0.00277811
      7289.00   0.00277620
      7290.00   0.00277429
      7291.00   0.00277239
      7292.00   0.00277049
      7293.00   0.00276858
      7294.00   0.00276669
      7295.00   0.00276479
      7296.00   0.00276289
      7297.00   0.00276100
      7298.00   0.00275911
      7299.00   0.00275721
      7300.00   0.00275533
      7301.00   0.00275344
      7302.00   0.00275155
      7303.00   0.00274967
      7304.00   0.00274779
      7305.00   0.00274591
      7306.00   0.00274403
      7307.00   0.00274216
      7308.00   0.00274028
      7309.00   0.00273841
      7310.00   0.00273654
      7311.00   0.00273467
      7312.00   0.00273280
      7313.00   0.00273094
      7314.00   0.00272907
      7315.00   0.00272721
      7316.00   0.00272535
      7317.00   0.00272349
      7318.00   0.00272163
      7319.00   0.00271978
      7320.00   0.00271792
      7321.00   0.00271607
      7322.00   0.00271422
      7323.00   0.00271237
      7324.00   0.00271053
      7325.00   0.00270868
      7326.00   0.00270684
      7327.00   0.00270500
      7328.00   0.00270315
      7329.00   0.00270132
      7330.00   0.00269948
      7331.00   0.00269764
      7332.00   0.00269581
      7333.00   0.00269398
      7334.00   0.00269215
      7335.00   0.00269032
      7336.00   0.00268849
      7337.00   0.00268667
      7338.00   0.00268484
      7339.00   0.00268302
      7340.00   0.00268120
      7341.00   0.00267938
      7342.00   0.00267757
      7343.00   0.00267575
      7344.00   0.00267394
      7345.00   0.00267212
      7346.00   0.00267031
      7347.00   0.00266850
      7348.00   0.00266670
      7349.00   0.00266489
      7350.00   0.00266309
      7351.00   0.00266128
      7352.00   0.00265948
      7353.00   0.00265768
      7354.00   0.00265588
      7355.00   0.00265409
      7356.00   0.00265229
      7357.00   0.00265050
      7358.00   0.00264871
      7359.00   0.00264692
      7360.00   0.00264513
      7361.00   0.00264334
      7362.00   0.00264155
      7363.00   0.00263977
      7364.00   0.00263799
      7365.00   0.00263621
      7366.00   0.00263442
      7367.00   0.00263265
      7368.00   0.00263087
      7369.00   0.00262909
      7370.00   0.00262732
      7371.00   0.00262555
      7372.00   0.00262378
      7373.00   0.00262201
      7374.00   0.00262024
      7375.00   0.00261847
      7376.00   0.00261671
      7377.00   0.00261495
      7378.00   0.00261318
      7379.00   0.00261142
      7380.00   0.00260966
      7381.00   0.00260791
      7382.00   0.00260615
      7383.00   0.00260440
      7384.00   0.00260264
      7385.00   0.00260089
      7386.00   0.00259914
      7387.00   0.00259739
      7388.00   0.00259564
      7389.00   0.00259390
      7390.00   0.00259215
      7391.00   0.00259041
      7392.00   0.00258867
      7393.00   0.00258693
      7394.00   0.00258519
      7395.00   0.00258345
      7396.00   0.00258172
      7397.00   0.00257998
      7398.00   0.00257825
      7399.00   0.00257652
      7400.00   0.00257479
      7401.00   0.00257306
      7402.00   0.00257133
      7403.00   0.00256960
      7404.00   0.00256788
      7405.00   0.00256615
      7406.00   0.00256443
      7407.00   0.00256271
      7408.00   0.00256099
      7409.00   0.00255927
      7410.00   0.00255756
      7411.00   0.00255584
      7412.00   0.00255413
      7413.00   0.00255241
      7414.00   0.00255070
      7415.00   0.00254899
      7416.00   0.00254728
      7417.00   0.00254558
      7418.00   0.00254387
      7419.00   0.00254216
      7420.00   0.00254046
      7421.00   0.00253876
      7422.00   0.00253706
      7423.00   0.00253536
      7424.00   0.00253366
      7425.00   0.00253196
      7426.00   0.00253027
      7427.00   0.00252857
      7428.00   0.00252688
      7429.00   0.00252519
      7430.00   0.00252350
      7431.00   0.00252181
      7432.00   0.00252012
      7433.00   0.00251843
      7434.00   0.00251674
      7435.00   0.00251506
      7436.00   0.00251338
      7437.00   0.00251170
      7438.00   0.00251001
      7439.00   0.00250834
      7440.00   0.00250666
      7441.00   0.00250498
      7442.00   0.00250330
      7443.00   0.00250163
      7444.00   0.00249996
      7445.00   0.00249828
      7446.00   0.00249661
      7447.00   0.00249494
      7448.00   0.00249328
      7449.00   0.00249161
      7450.00   0.00248994
      7451.00   0.00248828
      7452.00   0.00248661
      7453.00   0.00248495
      7454.00   0.00248329
      7455.00   0.00248163
      7456.00   0.00247997
      7457.00   0.00247831
      7458.00   0.00247666
      7459.00   0.00247500
      7460.00   0.00247335
      7461.00   0.00247169
      7462.00   0.00247004
      7463.00   0.00246839
      7464.00   0.00246674
      7465.00   0.00246509
      7466.00   0.00246344
      7467.00   0.00246180
      7468.00   0.00246015
      7469.00   0.00245851
      7470.00   0.00245687
      7471.00   0.00245522
      7472.00   0.00245358
      7473.00   0.00245194
      7474.00   0.00245031
      7475.00   0.00244867
      7476.00   0.00244703
      7477.00   0.00244540
      7478.00   0.00244376
      7479.00   0.00244213
      7480.00   0.00244050
      7481.00   0.00243887
      7482.00   0.00243724
      7483.00   0.00243561
      7484.00   0.00243398
      7485.00   0.00243235
      7486.00   0.00243073
      7487.00   0.00242910
      7488.00   0.00242748
      7489.00   0.00242586
      7490.00   0.00242424
      7491.00   0.00242262
      7492.00   0.00242100
      7493.00   0.00241938
      7494.00   0.00241776
      7495.00   0.00241615
      7496.00   0.00241453
      7497.00   0.00241292
      7498.00   0.00241130
      7499.00   0.00240969
      7500.00   0.00240808
      7501.00   0.00240647
      7502.00   0.00240486
      7503.00   0.00240325
      7504.00   0.00240164
      7505.00   0.00240004
      7506.00   0.00239843
      7507.00   0.00239683
      7508.00   0.00239523
      7509.00   0.00239362
      7510.00   0.00239202
      7511.00   0.00239042
      7512.00   0.00238882
      7513.00   0.00238722
      7514.00   0.00238563
      7515.00   0.00238403
      7516.00   0.00238244
      7517.00   0.00238084
      7518.00   0.00237925
      7519.00   0.00237765
      7520.00   0.00237606
      7521.00   0.00237447
      7522.00   0.00237288
      7523.00   0.00237129
      7524.00   0.00236970
      7525.00   0.00236812
      7526.00   0.00236653
      7527.00   0.00236495
      7528.00   0.00236336
      7529.00   0.00236178
      7530.00   0.00236020
      7531.00   0.00235861
      7532.00   0.00235703
      7533.00   0.00235545
      7534.00   0.00235387
      7535.00   0.00235229
      7536.00   0.00235072
      7537.00   0.00234914
      7538.00   0.00234757
      7539.00   0.00234599
      7540.00   0.00234442
      7541.00   0.00234284
      7542.00   0.00234127
      7543.00   0.00233970
      7544.00   0.00233813
      7545.00   0.00233656
      7546.00   0.00233499
      7547.00   0.00233342
      7548.00   0.00233186
      7549.00   0.00233029
      7550.00   0.00232872
      7551.00   0.00232716
      7552.00   0.00232559
      7553.00   0.00232403
      7554.00   0.00232247
      7555.00   0.00232091
      7556.00   0.00231935
      7557.00   0.00231779
      7558.00   0.00231623
      7559.00   0.00231467
      7560.00   0.00231311
      7561.00   0.00231155
      7562.00   0.00231000
      7563.00   0.00230844
      7564.00   0.00230689
      7565.00   0.00230533
      7566.00   0.00230378
      7567.00   0.00230222
      7568.00   0.00230067
      7569.00   0.00229912
      7570.00   0.00229757
      7571.00   0.00229602
      7572.00   0.00229447
      7573.00   0.00229292
      7574.00   0.00229137
      7575.00   0.00228982
      7576.00   0.00228828
      7577.00   0.00228673
      7578.00   0.00228518
      7579.00   0.00228364
      7580.00   0.00228209
      7581.00   0.00228055
      7582.00   0.00227900
      7583.00   0.00227746
      7584.00   0.00227591
      7585.00   0.00227437
      7586.00   0.00227283
      7587.00   0.00227129
      7588.00   0.00226975
      7589.00   0.00226820
      7590.00   0.00226666
      7591.00   0.00226512
      7592.00   0.00226358
      7593.00   0.00226204
      7594.00   0.00226051
      7595.00   0.00225897
      7596.00   0.00225743
      7597.00   0.00225589
      7598.00   0.00225435
      7599.00   0.00225282
      7600.00   0.00225128
      7601.00   0.00224974
      7602.00   0.00224821
      7603.00   0.00224667
      7604.00   0.00224514
      7605.00   0.00224360
      7606.00   0.00224207
      7607.00   0.00224053
      7608.00   0.00223900
      7609.00   0.00223746
      7610.00   0.00223593
      7611.00   0.00223439
      7612.00   0.00223286
      7613.00   0.00223133
      7614.00   0.00222979
      7615.00   0.00222826
      7616.00   0.00222673
      7617.00   0.00222520
      7618.00   0.00222366
      7619.00   0.00222213
      7620.00   0.00222060
      7621.00   0.00221907
      7622.00   0.00221753
      7623.00   0.00221600
      7624.00   0.00221447
      7625.00   0.00221294
      7626.00   0.00221141
      7627.00   0.00220988
      7628.00   0.00220834
      7629.00   0.00220681
      7630.00   0.00220528
      7631.00   0.00220375
      7632.00   0.00220222
      7633.00   0.00220069
      7634.00   0.00219916
      7635.00   0.00219762
      7636.00   0.00219609
      7637.00   0.00219456
      7638.00   0.00219303
      7639.00   0.00219150
      7640.00   0.00218997
      7641.00   0.00218844
      7642.00   0.00218690
      7643.00   0.00218537
      7644.00   0.00218384
      7645.00   0.00218231
      7646.00   0.00218078
      7647.00   0.00217924
      7648.00   0.00217771
      7649.00   0.00217618
      7650.00   0.00217465
      7651.00   0.00217311
      7652.00   0.00217158
      7653.00   0.00217005
      7654.00   0.00216851
      7655.00   0.00216698
      7656.00   0.00216544
      7657.00   0.00216391
      7658.00   0.00216238
      7659.00   0.00216084
      7660.00   0.00215931
      7661.00   0.00215777
      7662.00   0.00215624
      7663.00   0.00215470
      7664.00   0.00215316
      7665.00   0.00215163
      7666.00   0.00215009
      7667.00   0.00214855
      7668.00   0.00214702
      7669.00   0.00214548
      7670.00   0.00214394
      7671.00   0.00214240
      7672.00   0.00214086
      7673.00   0.00213932
      7674.00   0.00213778
      7675.00   0.00213624
      7676.00   0.00213470
      7677.00   0.00213316
      7678.00   0.00213162
      7679.00   0.00213008
      7680.00   0.00212854
      7681.00   0.00212700
      7682.00   0.00212545
      7683.00   0.00212391
      7684.00   0.00212236
      7685.00   0.00212082
      7686.00   0.00211927
      7687.00   0.00211773
      7688.00   0.00211618
      7689.00   0.00211463
      7690.00   0.00211309
      7691.00   0.00211154
      7692.00   0.00210999
      7693.00   0.00210844
      7694.00   0.00210689
      7695.00   0.00210534
      7696.00   0.00210379
      7697.00   0.00210224
      7698.00   0.00210069
      7699.00   0.00209913
      7700.00   0.00209758
      7701.00   0.00209603
      7702.00   0.00209447
      7703.00   0.00209292
      7704.00   0.00209136
      7705.00   0.00208980
      7706.00   0.00208825
      7707.00   0.00208669
      7708.00   0.00208513
      7709.00   0.00208357
      7710.00   0.00208201
      7711.00   0.00208045
      7712.00   0.00207888
      7713.00   0.00207732
      7714.00   0.00207576
      7715.00   0.00207419
      7716.00   0.00207263
      7717.00   0.00207106
      7718.00   0.00206949
      7719.00   0.00206793
      7720.00   0.00206636
      7721.00   0.00206479
      7722.00   0.00206322
      7723.00   0.00206165
      7724.00   0.00206007
      7725.00   0.00205850
      7726.00   0.00205693
      7727.00   0.00205535
      7728.00   0.00205378
      7729.00   0.00205220
      7730.00   0.00205062
      7731.00   0.00204904
      7732.00   0.00204746
      7733.00   0.00204588
      7734.00   0.00204430
      7735.00   0.00204272
      7736.00   0.00204113
      7737.00   0.00203955
      7738.00   0.00203796
      7739.00   0.00203638
      7740.00   0.00203479
      7741.00   0.00203320
      7742.00   0.00203161
      7743.00   0.00203002
      7744.00   0.00202843
      7745.00   0.00202683
      7746.00   0.00202524
      7747.00   0.00202364
      7748.00   0.00202205
      7749.00   0.00202045
      7750.00   0.00201885
      7751.00   0.00201725
      7752.00   0.00201565
      7753.00   0.00201404
      7754.00   0.00201244
      7755.00   0.00201084
      7756.00   0.00200923
      7757.00   0.00200762
      7758.00   0.00200601
      7759.00   0.00200440
      7760.00   0.00200279
      7761.00   0.00200118
      7762.00   0.00199957
      7763.00   0.00199795
      7764.00   0.00199634
      7765.00   0.00199472
      7766.00   0.00199310
      7767.00   0.00199148
      7768.00   0.00198986
      7769.00   0.00198824
      7770.00   0.00198661
      7771.00   0.00198499
      7772.00   0.00198336
      7773.00   0.00198173
      7774.00   0.00198010
      7775.00   0.00197847
      7776.00   0.00197684
      7777.00   0.00197521
      7778.00   0.00197357
      7779.00   0.00197194
      7780.00   0.00197030
      7781.00   0.00196866
      7782.00   0.00196702
      7783.00   0.00196538
      7784.00   0.00196374
      7785.00   0.00196209
      7786.00   0.00196045
      7787.00   0.00195880
      7788.00   0.00195715
      7789.00   0.00195550
      7790.00   0.00195385
      7791.00   0.00195220
      7792.00   0.00195054
      7793.00   0.00194889
      7794.00   0.00194723
      7795.00   0.00194557
      7796.00   0.00194391
      7797.00   0.00194225
      7798.00   0.00194058
      7799.00   0.00193892
      7800.00   0.00193725
      7801.00   0.00193558
      7802.00   0.00193391
      7803.00   0.00193224
      7804.00   0.00193057
      7805.00   0.00192890
      7806.00   0.00192722
      7807.00   0.00192555
      7808.00   0.00192387
      7809.00   0.00192219
      7810.00   0.00192050
      7811.00   0.00191882
      7812.00   0.00191714
      7813.00   0.00191545
      7814.00   0.00191376
      7815.00   0.00191207
      7816.00   0.00191038
      7817.00   0.00190869
      7818.00   0.00190699
      7819.00   0.00190530
      7820.00   0.00190360
      7821.00   0.00190190
      7822.00   0.00190020
      7823.00   0.00189850
      7824.00   0.00189679
      7825.00   0.00189509
      7826.00   0.00189338
      7827.00   0.00189167
      7828.00   0.00188996
      7829.00   0.00188824
      7830.00   0.00188653
      7831.00   0.00188481
      7832.00   0.00188310
      7833.00   0.00188138
      7834.00   0.00187965
      7835.00   0.00187793
      7836.00   0.00187621
      7837.00   0.00187448
      7838.00   0.00187275
      7839.00   0.00187102
      7840.00   0.00186929
      7841.00   0.00186755
      7842.00   0.00186582
      7843.00   0.00186408
      7844.00   0.00186234
      7845.00   0.00186060
      7846.00   0.00185886
      7847.00   0.00185711
      7848.00   0.00185537
      7849.00   0.00185362
      7850.00   0.00185187
      7851.00   0.00185012
      7852.00   0.00184837
      7853.00   0.00184661
      7854.00   0.00184485
      7855.00   0.00184309
      7856.00   0.00184133
      7857.00   0.00183957
      7858.00   0.00183780
      7859.00   0.00183604
      7860.00   0.00183427
      7861.00   0.00183250
      7862.00   0.00183073
      7863.00   0.00182895
      7864.00   0.00182717
      7865.00   0.00182540
      7866.00   0.00182362
      7867.00   0.00182183
      7868.00   0.00182005
      7869.00   0.00181826
      7870.00   0.00181648
      7871.00   0.00181469
      7872.00   0.00181289
      7873.00   0.00181110
      7874.00   0.00180930
      7875.00   0.00180751
      7876.00   0.00180571
      7877.00   0.00180390
      7878.00   0.00180210
      7879.00   0.00180029
      7880.00   0.00179849
      7881.00   0.00179668
      7882.00   0.00179486
      7883.00   0.00179305
      7884.00   0.00179123
      7885.00   0.00178942
      7886.00   0.00178760
      7887.00   0.00178577
      7888.00   0.00178395
      7889.00   0.00178212
      7890.00   0.00178029
      7891.00   0.00177846
      7892.00   0.00177663
      7893.00   0.00177479
      7894.00   0.00177296
      7895.00   0.00177112
      7896.00   0.00176928
      7897.00   0.00176743
      7898.00   0.00176559
      7899.00   0.00176374
      7900.00   0.00176189
      7901.00   0.00176004
      7902.00   0.00175818
      7903.00   0.00175633
      7904.00   0.00175447
      7905.00   0.00175261
      7906.00   0.00175075
      7907.00   0.00174888
      7908.00   0.00174701
      7909.00   0.00174514
      7910.00   0.00174327
      7911.00   0.00174140
      7912.00   0.00173952
      7913.00   0.00173764
      7914.00   0.00173576
      7915.00   0.00173388
      7916.00   0.00173199
      7917.00   0.00173011
      7918.00   0.00172822
      7919.00   0.00172632
      7920.00   0.00172443
      7921.00   0.00172253
      7922.00   0.00172063
      7923.00   0.00171873
      7924.00   0.00171683
      7925.00   0.00171492
      7926.00   0.00171301
      7927.00   0.00171110
      7928.00   0.00170919
      7929.00   0.00170728
      7930.00   0.00170536
      7931.00   0.00170344
      7932.00   0.00170152
      7933.00   0.00169959
      7934.00   0.00169766
      7935.00   0.00169573
      7936.00   0.00169380
      7937.00   0.00169187
      7938.00   0.00168993
      7939.00   0.00168799
      7940.00   0.00168605
      7941.00   0.00168411
      7942.00   0.00168216
      7943.00   0.00168021
      7944.00   0.00167826
      7945.00   0.00167631
      7946.00   0.00167435
      7947.00   0.00167239
      7948.00   0.00167043
      7949.00   0.00166847
      7950.00   0.00166650
      7951.00   0.00166453
      7952.00   0.00166256
      7953.00   0.00166059
      7954.00   0.00165861
      7955.00   0.00165663
      7956.00   0.00165465
      7957.00   0.00165267
      7958.00   0.00165068
      7959.00   0.00164869
      7960.00   0.00164670
      7961.00   0.00164471
      7962.00   0.00164271
      7963.00   0.00164071
      7964.00   0.00163871
      7965.00   0.00163671
      7966.00   0.00163470
      7967.00   0.00163269
      7968.00   0.00163068
      7969.00   0.00162866
      7970.00   0.00162665
      7971.00   0.00162463
      7972.00   0.00162261
      7973.00   0.00162058
      7974.00   0.00161856
      7975.00   0.00161653
      7976.00   0.00161450
      7977.00   0.00161246
      7978.00   0.00161043
      7979.00   0.00160839
      7980.00   0.00160635
      7981.00   0.00160431
      7982.00   0.00160227
      7983.00   0.00160022
      7984.00   0.00159817
      7985.00   0.00159612
      7986.00   0.00159407
      7987.00   0.00159202
      7988.00   0.00158996
      7989.00   0.00158790
      7990.00   0.00158584
      7991.00   0.00158378
      7992.00   0.00158172
      7993.00   0.00157965
      7994.00   0.00157759
      7995.00   0.00157552
      7996.00   0.00157345
      7997.00   0.00157137
      7998.00   0.00156930
      7999.00   0.00156723
      8000.00   0.00156515
      8001.00   0.00156307
      8002.00   0.00156099
      8003.00   0.00155891
      8004.00   0.00155683
      8005.00   0.00155474
      8006.00   0.00155266
      8007.00   0.00155057
      8008.00   0.00154848
      8009.00   0.00154639
      8010.00   0.00154430
      8011.00   0.00154221
      8012.00   0.00154011
      8013.00   0.00153802
      8014.00   0.00153592
      8015.00   0.00153383
      8016.00   0.00153173
      8017.00   0.00152963
      8018.00   0.00152753
      8019.00   0.00152543
      8020.00   0.00152332
      8021.00   0.00152122
      8022.00   0.00151912
      8023.00   0.00151701
      8024.00   0.00151491
      8025.00   0.00151280
      8026.00   0.00151069
      8027.00   0.00150858
      8028.00   0.00150647
      8029.00   0.00150436
      8030.00   0.00150225
      8031.00   0.00150014
      8032.00   0.00149803
      8033.00   0.00149592
      8034.00   0.00149380
      8035.00   0.00149169
      8036.00   0.00148958
      8037.00   0.00148746
      8038.00   0.00148535
      8039.00   0.00148323
      8040.00   0.00148111
      8041.00   0.00147900
      8042.00   0.00147688
      8043.00   0.00147476
      8044.00   0.00147265
      8045.00   0.00147053
      8046.00   0.00146841
      8047.00   0.00146629
      8048.00   0.00146417
      8049.00   0.00146205
      8050.00   0.00145994
      8051.00   0.00145782
      8052.00   0.00145570
      8053.00   0.00145358
      8054.00   0.00145146
      8055.00   0.00144934
      8056.00   0.00144722
      8057.00   0.00144510
      8058.00   0.00144299
      8059.00   0.00144087
      8060.00   0.00143875
      8061.00   0.00143663
      8062.00   0.00143451
      8063.00   0.00143240
      8064.00   0.00143028
      8065.00   0.00142816
      8066.00   0.00142604
      8067.00   0.00142393
      8068.00   0.00142181
      8069.00   0.00141970
      8070.00   0.00141758
      8071.00   0.00141547
      8072.00   0.00141335
      8073.00   0.00141124
      8074.00   0.00140913
      8075.00   0.00140702
      8076.00   0.00140490
      8077.00   0.00140279
      8078.00   0.00140068
      8079.00   0.00139857
      8080.00   0.00139647
      8081.00   0.00139436
      8082.00   0.00139225
      8083.00   0.00139014
      8084.00   0.00138804
      8085.00   0.00138593
      8086.00   0.00138383
      8087.00   0.00138173
      8088.00   0.00137963
      8089.00   0.00137753
      8090.00   0.00137543
      8091.00   0.00137333
      8092.00   0.00137123
      8093.00   0.00136914
      8094.00   0.00136704
      8095.00   0.00136495
      8096.00   0.00136285
      8097.00   0.00136076
      8098.00   0.00135867
      8099.00   0.00135658
      8100.00   0.00135450
      8101.00   0.00135241
      8102.00   0.00135033
      8103.00   0.00134824
      8104.00   0.00134616
      8105.00   0.00134408
      8106.00   0.00134200
      8107.00   0.00133992
      8108.00   0.00133785
      8109.00   0.00133578
      8110.00   0.00133370
      8111.00   0.00133163
      8112.00   0.00132956
      8113.00   0.00132750
      8114.00   0.00132543
      8115.00   0.00132337
      8116.00   0.00132130
      8117.00   0.00131924
      8118.00   0.00131719
      8119.00   0.00131513
      8120.00   0.00131308
      8121.00   0.00131102
      8122.00   0.00130897
      8123.00   0.00130692
      8124.00   0.00130488
      8125.00   0.00130283
      8126.00   0.00130079
      8127.00   0.00129875
      8128.00   0.00129671
      8129.00   0.00129468
      8130.00   0.00129264
      8131.00   0.00129061
      8132.00   0.00128858
      8133.00   0.00128656
      8134.00   0.00128453
      8135.00   0.00128251
      8136.00   0.00128049
      8137.00   0.00127847
      8138.00   0.00127646
      8139.00   0.00127445
      8140.00   0.00127244
      8141.00   0.00127043
      8142.00   0.00126843
      8143.00   0.00126642
      8144.00   0.00126442
      8145.00   0.00126243
      8146.00   0.00126043
      8147.00   0.00125844
      8148.00   0.00125645
      8149.00   0.00125447
      8150.00   0.00125249
      8151.00   0.00125050
      8152.00   0.00124853
      8153.00   0.00124655
      8154.00   0.00124458
      8155.00   0.00124261
      8156.00   0.00124065
      8157.00   0.00123869
      8158.00   0.00123673
      8159.00   0.00123477
      8160.00   0.00123282
      8161.00   0.00123087
      8162.00   0.00122892
      8163.00   0.00122697
      8164.00   0.00122503
      8165.00   0.00122310
      8166.00   0.00122116
      8167.00   0.00121923
      8168.00   0.00121730
      8169.00   0.00121538
      8170.00   0.00121346
      8171.00   0.00121154
      8172.00   0.00120963
      8173.00   0.00120772
      8174.00   0.00120581
      8175.00   0.00120391
      8176.00   0.00120201
      8177.00   0.00120011
      8178.00   0.00119822
      8179.00   0.00119633
      8180.00   0.00119444
      8181.00   0.00119256
      8182.00   0.00119068
      8183.00   0.00118880
      8184.00   0.00118693
      8185.00   0.00118506
      8186.00   0.00118319
      8187.00   0.00118133
      8188.00   0.00117947
      8189.00   0.00117762
      8190.00   0.00117576
      8191.00   0.00117391
      8192.00   0.00117207
      8193.00   0.00117023
      8194.00   0.00116839
      8195.00   0.00116655
      8196.00   0.00116472
      8197.00   0.00116289
      8198.00   0.00116106
      8199.00   0.00115924
      8200.00   0.00115742
      8201.00   0.00115561
      8202.00   0.00115379
      8203.00   0.00115198
      8204.00   0.00115018
      8205.00   0.00114838
      8206.00   0.00114658
      8207.00   0.00114478
      8208.00   0.00114299
      8209.00   0.00114120
      8210.00   0.00113941
      8211.00   0.00113763
      8212.00   0.00113585
      8213.00   0.00113407
      8214.00   0.00113230
      8215.00   0.00113053
      8216.00   0.00112876
      8217.00   0.00112700
      8218.00   0.00112523
      8219.00   0.00112348
      8220.00   0.00112172
      8221.00   0.00111997
      8222.00   0.00111822
      8223.00   0.00111648
      8224.00   0.00111474
      8225.00   0.00111300
      8226.00   0.00111126
      8227.00   0.00110953
      8228.00   0.00110780
      8229.00   0.00110608
      8230.00   0.00110435
      8231.00   0.00110263
      8232.00   0.00110092
      8233.00   0.00109920
      8234.00   0.00109749
      8235.00   0.00109578
      8236.00   0.00109408
      8237.00   0.00109238
      8238.00   0.00109068
      8239.00   0.00108899
      8240.00   0.00108729
      8241.00   0.00108561
      8242.00   0.00108392
      8243.00   0.00108224
      8244.00   0.00108056
      8245.00   0.00107888
      8246.00   0.00107721
      8247.00   0.00107554
      8248.00   0.00107387
      8249.00   0.00107220
      8250.00   0.00107054
      8251.00   0.00106888
      8252.00   0.00106723
      8253.00   0.00106558
      8254.00   0.00106393
      8255.00   0.00106228
      8256.00   0.00106064
      8257.00   0.00105900
      8258.00   0.00105736
      8259.00   0.00105572
      8260.00   0.00105409
      8261.00   0.00105246
      8262.00   0.00105084
      8263.00   0.00104921
      8264.00   0.00104759
      8265.00   0.00104598
      8266.00   0.00104436
      8267.00   0.00104275
      8268.00   0.00104114
      8269.00   0.00103954
      8270.00   0.00103794
      8271.00   0.00103634
      8272.00   0.00103474
      8273.00   0.00103315
      8274.00   0.00103155
      8275.00   0.00102997
      8276.00   0.00102838
      8277.00   0.00102680
      8278.00   0.00102522
      8279.00   0.00102364
      8280.00   0.00102207
      8281.00   0.00102050
      8282.00   0.00101893
      8283.00   0.00101736
      8284.00   0.00101580
      8285.00   0.00101424
      8286.00   0.00101268
      8287.00   0.00101113
      8288.00   0.00100958
      8289.00   0.00100803
      8290.00   0.00100648
      8291.00   0.00100494
      8292.00   0.00100340
      8293.00   0.00100186
      8294.00   0.00100033
      8295.00  0.000998795
      8296.00  0.000997266
      8297.00  0.000995739
      8298.00  0.000994215
      8299.00  0.000992694
      8300.00  0.000991176
      8301.00  0.000989660
      8302.00  0.000988147
      8303.00  0.000986637
      8304.00  0.000985129
      8305.00  0.000983624
      8306.00  0.000982122
      8307.00  0.000980622
      8308.00  0.000979125
      8309.00  0.000977631
      8310.00  0.000976140
      8311.00  0.000974651
      8312.00  0.000973164
      8313.00  0.000971681
      8314.00  0.000970200
      8315.00  0.000968721
      8316.00  0.000967245
      8317.00  0.000965772
      8318.00  0.000964302
      8319.00  0.000962834
      8320.00  0.000961368
      8321.00  0.000959906
      8322.00  0.000958446
      8323.00  0.000956988
      8324.00  0.000955533
      8325.00  0.000954081
      8326.00  0.000952631
      8327.00  0.000951184
      8328.00  0.000949739
      8329.00  0.000948297
      8330.00  0.000946857
      8331.00  0.000945420
      8332.00  0.000943986
      8333.00  0.000942553
      8334.00  0.000941124
      8335.00  0.000939697
      8336.00  0.000938272
      8337.00  0.000936850
      8338.00  0.000935431
      8339.00  0.000934014
      8340.00  0.000932599
      8341.00  0.000931187
      8342.00  0.000929778
      8343.00  0.000928371
      8344.00  0.000926966
      8345.00  0.000925564
      8346.00  0.000924164
      8347.00  0.000922767
      8348.00  0.000921372
      8349.00  0.000919980
      8350.00  0.000918589
      8351.00  0.000917202
      8352.00  0.000915817
      8353.00  0.000914434
      8354.00  0.000913054
      8355.00  0.000911676
      8356.00  0.000910300
      8357.00  0.000908927
      8358.00  0.000907556
      8359.00  0.000906188
      8360.00  0.000904822
      8361.00  0.000903458
      8362.00  0.000902097
      8363.00  0.000900738
      8364.00  0.000899381
      8365.00  0.000898027
      8366.00  0.000896675
      8367.00  0.000895325
      8368.00  0.000893978
      8369.00  0.000892633
      8370.00  0.000891290
      8371.00  0.000889950
      8372.00  0.000888611
      8373.00  0.000887276
      8374.00  0.000885942
      8375.00  0.000884611
      8376.00  0.000883282
      8377.00  0.000881955
      8378.00  0.000880631
      8379.00  0.000879309
      8380.00  0.000877989
      8381.00  0.000876671
      8382.00  0.000875356
      8383.00  0.000874042
      8384.00  0.000872731
      8385.00  0.000871423
      8386.00  0.000870116
      8387.00  0.000868812
      8388.00  0.000867510
      8389.00  0.000866211
      8390.00  0.000864913
      8391.00  0.000863618
      8392.00  0.000862325
      8393.00  0.000861035
      8394.00  0.000859746
      8395.00  0.000858460
      8396.00  0.000857177
      8397.00  0.000855895
      8398.00  0.000854616
      8399.00  0.000853339
      8400.00  0.000852064
      8401.00  0.000850791
      8402.00  0.000849521
      8403.00  0.000848253
      8404.00  0.000846987
      8405.00  0.000845724
      8406.00  0.000844463
      8407.00  0.000843204
      8408.00  0.000841947
      8409.00  0.000840693
      8410.00  0.000839441
      8411.00  0.000838191
      8412.00  0.000836943
      8413.00  0.000835698
      8414.00  0.000834455
      8415.00  0.000833214
      8416.00  0.000831975
      8417.00  0.000830739
      8418.00  0.000829505
      8419.00  0.000828273
      8420.00  0.000827044
      8421.00  0.000825817
      8422.00  0.000824592
      8423.00  0.000823369
      8424.00  0.000822149
      8425.00  0.000820931
      8426.00  0.000819715
      8427.00  0.000818501
      8428.00  0.000817290
      8429.00  0.000816081
      8430.00  0.000814874
      8431.00  0.000813670
      8432.00  0.000812467
      8433.00  0.000811268
      8434.00  0.000810070
      8435.00  0.000808875
      8436.00  0.000807681
      8437.00  0.000806491
      8438.00  0.000805302
      8439.00  0.000804116
      8440.00  0.000802932
      8441.00  0.000801750
      8442.00  0.000800571
      8443.00  0.000799393
      8444.00  0.000798218
      8445.00  0.000797046
      8446.00  0.000795876
      8447.00  0.000794707
      8448.00  0.000793542
      8449.00  0.000792378
      8450.00  0.000791217
      8451.00  0.000790058
      8452.00  0.000788901
      8453.00  0.000787747
      8454.00  0.000786595
      8455.00  0.000785445
      8456.00  0.000784297
      8457.00  0.000783152
      8458.00  0.000782009
      8459.00  0.000780869
      8460.00  0.000779730
      8461.00  0.000778594
      8462.00  0.000777460
      8463.00  0.000776329
      8464.00  0.000775199
      8465.00  0.000774072
      8466.00  0.000772948
      8467.00  0.000771825
      8468.00  0.000770705
      8469.00  0.000769587
      8470.00  0.000768472
      8471.00  0.000767358
      8472.00  0.000766248
      8473.00  0.000765139
      8474.00  0.000764032
      8475.00  0.000762928
      8476.00  0.000761826
      8477.00  0.000760727
      8478.00  0.000759630
      8479.00  0.000758535
      8480.00  0.000757442
      8481.00  0.000756352
      8482.00  0.000755264
      8483.00  0.000754178
      8484.00  0.000753094
      8485.00  0.000752013
      8486.00  0.000750934
      8487.00  0.000749858
      8488.00  0.000748783
      8489.00  0.000747711
      8490.00  0.000746641
      8491.00  0.000745574
      8492.00  0.000744509
      8493.00  0.000743446
      8494.00  0.000742386
      8495.00  0.000741327
      8496.00  0.000740271
      8497.00  0.000739218
      8498.00  0.000738166
      8499.00  0.000737117
      8500.00  0.000736070
      8501.00  0.000735026
      8502.00  0.000733984
      8503.00  0.000732944
      8504.00  0.000731906
      8505.00  0.000730871
      8506.00  0.000729838
      8507.00  0.000728807
      8508.00  0.000727779
      8509.00  0.000726753
      8510.00  0.000725729
      8511.00  0.000724708
      8512.00  0.000723689
      8513.00  0.000722672
      8514.00  0.000721657
      8515.00  0.000720645
      8516.00  0.000719635
      8517.00  0.000718628
      8518.00  0.000717622
      8519.00  0.000716619
      8520.00  0.000715618
      8521.00  0.000714620
      8522.00  0.000713624
      8523.00  0.000712630
      8524.00  0.000711639
      8525.00  0.000710649
      8526.00  0.000709662
      8527.00  0.000708678
      8528.00  0.000707696
      8529.00  0.000706716
      8530.00  0.000705738
      8531.00  0.000704763
      8532.00  0.000703790
      8533.00  0.000702819
      8534.00  0.000701850
      8535.00  0.000700884
      8536.00  0.000699921
      8537.00  0.000698959
      8538.00  0.000698000
      8539.00  0.000697043
      8540.00  0.000696089
      8541.00  0.000695136
      8542.00  0.000694186
      8543.00  0.000693239
      8544.00  0.000692294
      8545.00  0.000691350
      8546.00  0.000690410
      8547.00  0.000689472
      8548.00  0.000688536
      8549.00  0.000687602
      8550.00  0.000686670
      8551.00  0.000685741
      8552.00  0.000684815
      8553.00  0.000683890
      8554.00  0.000682968
      8555.00  0.000682048
      8556.00  0.000681131
      8557.00  0.000680216
      8558.00  0.000679303
      8559.00  0.000678392
      8560.00  0.000677484
      8561.00  0.000676578
      8562.00  0.000675674
      8563.00  0.000674773
      8564.00  0.000673874
      8565.00  0.000672978
      8566.00  0.000672084
      8567.00  0.000671192
      8568.00  0.000670302
      8569.00  0.000669415
      8570.00  0.000668530
      8571.00  0.000667647
      8572.00  0.000666767
      8573.00  0.000665889
      8574.00  0.000665013
      8575.00  0.000664140
      8576.00  0.000663268
      8577.00  0.000662400
      8578.00  0.000661533
      8579.00  0.000660669
      8580.00  0.000659808
      8581.00  0.000658948
      8582.00  0.000658091
      8583.00  0.000657236
      8584.00  0.000656384
      8585.00  0.000655534
      8586.00  0.000654686
      8587.00  0.000653841
      8588.00  0.000652998
      8589.00  0.000652157
      8590.00  0.000651318
      8591.00  0.000650482
      8592.00  0.000649648
      8593.00  0.000648816
      8594.00  0.000647986
      8595.00  0.000647159
      8596.00  0.000646333
      8597.00  0.000645510
      8598.00  0.000644689
      8599.00  0.000643870
      8600.00  0.000643053
      8601.00  0.000642238
      8602.00  0.000641425
      8603.00  0.000640615
      8604.00  0.000639806
      8605.00  0.000638999
      8606.00  0.000638194
      8607.00  0.000637391
      8608.00  0.000636591
      8609.00  0.000635792
      8610.00  0.000634995
      8611.00  0.000634200
      8612.00  0.000633406
      8613.00  0.000632615
      8614.00  0.000631825
      8615.00  0.000631038
      8616.00  0.000630252
      8617.00  0.000629468
      8618.00  0.000628685
      8619.00  0.000627905
      8620.00  0.000627126
      8621.00  0.000626349
      8622.00  0.000625573
      8623.00  0.000624800
      8624.00  0.000624027
      8625.00  0.000623257
      8626.00  0.000622488
      8627.00  0.000621721
      8628.00  0.000620955
      8629.00  0.000620192
      8630.00  0.000619429
      8631.00  0.000618668
      8632.00  0.000617909
      8633.00  0.000617151
      8634.00  0.000616394
      8635.00  0.000615639
      8636.00  0.000614886
      8637.00  0.000614134
      8638.00  0.000613383
      8639.00  0.000612634
      8640.00  0.000611886
      8641.00  0.000611140
      8642.00  0.000610395
      8643.00  0.000609651
      8644.00  0.000608908
      8645.00  0.000608167
      8646.00  0.000607427
      8647.00  0.000606689
      8648.00  0.000605951
      8649.00  0.000605215
      8650.00  0.000604480
      8651.00  0.000603746
      8652.00  0.000603014
      8653.00  0.000602282
      8654.00  0.000601552
      8655.00  0.000600823
      8656.00  0.000600095
      8657.00  0.000599368
      8658.00  0.000598642
      8659.00  0.000597917
      8660.00  0.000597193
      8661.00  0.000596470
      8662.00  0.000595748
      8663.00  0.000595028
      8664.00  0.000594308
      8665.00  0.000593589
      8666.00  0.000592871
      8667.00  0.000592154
      8668.00  0.000591437
      8669.00  0.000590722
      8670.00  0.000590008
      8671.00  0.000589294
      8672.00  0.000588581
      8673.00  0.000587869
      8674.00  0.000587158
      8675.00  0.000586447
      8676.00  0.000585737
      8677.00  0.000585028
      8678.00  0.000584320
      8679.00  0.000583613
      8680.00  0.000582906
      8681.00  0.000582199
      8682.00  0.000581494
      8683.00  0.000580789
      8684.00  0.000580084
      8685.00  0.000579381
      8686.00  0.000578677
      8687.00  0.000577975
      8688.00  0.000577273
      8689.00  0.000576571
      8690.00  0.000575870
      8691.00  0.000575169
      8692.00  0.000574469
      8693.00  0.000573770
      8694.00  0.000573070
      8695.00  0.000572372
      8696.00  0.000571673
      8697.00  0.000570975
      8698.00  0.000570277
      8699.00  0.000569580
      8700.00  0.000568883
      8701.00  0.000568186
      8702.00  0.000567490
      8703.00  0.000566794
      8704.00  0.000566098
      8705.00  0.000565402
      8706.00  0.000564707
      8707.00  0.000564012
      8708.00  0.000563317
      8709.00  0.000562622
      8710.00  0.000561927
      8711.00  0.000561232
      8712.00  0.000560538
      8713.00  0.000559844
      8714.00  0.000559149
      8715.00  0.000558455
      8716.00  0.000557761
      8717.00  0.000557067
      8718.00  0.000556373
      8719.00  0.000555678
      8720.00  0.000554984
      8721.00  0.000554290
      8722.00  0.000553596
      8723.00  0.000552901
      8724.00  0.000552207
      8725.00  0.000551512
      8726.00  0.000550818
      8727.00  0.000550123
      8728.00  0.000549428
      8729.00  0.000548733
      8730.00  0.000548037
      8731.00  0.000547342
      8732.00  0.000546646
      8733.00  0.000545950
      8734.00  0.000545254
      8735.00  0.000544557
      8736.00  0.000543860
      8737.00  0.000543163
      8738.00  0.000542465
      8739.00  0.000541767
      8740.00  0.000541069
      8741.00  0.000540370
      8742.00  0.000539671
      8743.00  0.000538971
      8744.00  0.000538271
      8745.00  0.000537571
      8746.00  0.000536870
      8747.00  0.000536168
      8748.00  0.000535466
      8749.00  0.000534764
      8750.00  0.000534061
      8751.00  0.000533357
      8752.00  0.000532653
      8753.00  0.000531948
      8754.00  0.000531242
      8755.00  0.000530536
      8756.00  0.000529829
      8757.00  0.000529122
      8758.00  0.000528414
      8759.00  0.000527705
      8760.00  0.000526995
      8761.00  0.000526285
      8762.00  0.000525574
      8763.00  0.000524862
      8764.00  0.000524149
      8765.00  0.000523436
      8766.00  0.000522722
      8767.00  0.000522006
      8768.00  0.000521290
      8769.00  0.000520573
      8770.00  0.000519856
      8771.00  0.000519137
      8772.00  0.000518417
      8773.00  0.000517696
      8774.00  0.000516975
      8775.00  0.000516252
      8776.00  0.000515529
      8777.00  0.000514804
      8778.00  0.000514078
      8779.00  0.000513351
      8780.00  0.000512624
      8781.00  0.000511895
      8782.00  0.000511164
      8783.00  0.000510433
      8784.00  0.000509701
      8785.00  0.000508967
      8786.00  0.000508233
      8787.00  0.000507497
      8788.00  0.000506760
      8789.00  0.000506021
      8790.00  0.000505282
      8791.00  0.000504541
      8792.00  0.000503798
      8793.00  0.000503055
      8794.00  0.000502310
      8795.00  0.000501564
      8796.00  0.000500816
      8797.00  0.000500067
      8798.00  0.000499317
      8799.00  0.000498565
      8800.00  0.000497811
      8801.00  0.000497056
      8802.00  0.000496299
      8803.00  0.000495541
      8804.00  0.000494781
      8805.00  0.000494019
      8806.00  0.000493256
      8807.00  0.000492491
      8808.00  0.000491724
      8809.00  0.000490956
      8810.00  0.000490185
      8811.00  0.000489413
      8812.00  0.000488639
      8813.00  0.000487862
      8814.00  0.000487084
      8815.00  0.000486304
      8816.00  0.000485522
      8817.00  0.000484738
      8818.00  0.000483952
      8819.00  0.000483163
      8820.00  0.000482373
      8821.00  0.000481580
      8822.00  0.000480785
      8823.00  0.000479988
      8824.00  0.000479189
      8825.00  0.000478387
      8826.00  0.000477583
      8827.00  0.000476777
      8828.00  0.000475968
      8829.00  0.000475157
      8830.00  0.000474344
      8831.00  0.000473527
      8832.00  0.000472709
      8833.00  0.000471888
      8834.00  0.000471064
      8835.00  0.000470238
      8836.00  0.000469409
      8837.00  0.000468577
      8838.00  0.000467743
      8839.00  0.000466906
      8840.00  0.000466066
      8841.00  0.000465224
      8842.00  0.000464378
      8843.00  0.000463530
      8844.00  0.000462679
      8845.00  0.000461825
      8846.00  0.000460968
      8847.00  0.000460108
      8848.00  0.000459245
      8849.00  0.000458379
      8850.00  0.000457510
      8851.00  0.000456638
      8852.00  0.000455763
      8853.00  0.000454884
      8854.00  0.000454003
      8855.00  0.000453118
      8856.00  0.000452230
      8857.00  0.000451338
      8858.00  0.000450444
      8859.00  0.000449546
      8860.00  0.000448644
      8861.00  0.000447739
      8862.00  0.000446831
      8863.00  0.000445920
      8864.00  0.000445004
      8865.00  0.000444086
      8866.00  0.000443163
      8867.00  0.000442238
      8868.00  0.000441308
      8869.00  0.000440375
      8870.00  0.000439438
      8871.00  0.000438498
      8872.00  0.000437553
      8873.00  0.000436605
      8874.00  0.000435653
      8875.00  0.000434698
      8876.00  0.000433738
      8877.00  0.000432775
      8878.00  0.000431807
      8879.00  0.000430836
      8880.00  0.000429861
      8881.00  0.000428881
      8882.00  0.000427898
      8883.00  0.000426910
      8884.00  0.000425919
      8885.00  0.000424923
      8886.00  0.000423923
      8887.00  0.000422919
      8888.00  0.000421911
      8889.00  0.000420898
      8890.00  0.000419881
      8891.00  0.000418860
      8892.00  0.000417834
      8893.00  0.000416804
      8894.00  0.000415770
      8895.00  0.000414731
      8896.00  0.000413687
      8897.00  0.000412639
      8898.00  0.000411587
      8899.00  0.000410530
      8900.00  0.000409468
      8901.00  0.000408402
      8902.00  0.000407331
      8903.00  0.000406256
      8904.00  0.000405175
      8905.00  0.000404090
      8906.00  0.000403000
      8907.00  0.000401905
      8908.00  0.000400806
      8909.00  0.000399701
      8910.00  0.000398592
      8911.00  0.000397478
      8912.00  0.000396358
      8913.00  0.000395234
      8914.00  0.000394105
      8915.00  0.000392970
      8916.00  0.000391831
      8917.00  0.000390686
      8918.00  0.000389536
      8919.00  0.000388381
      8920.00  0.000387221
      8921.00  0.000386056
      8922.00  0.000384885
      8923.00  0.000383709
      8924.00  0.000382527
      8925.00  0.000381340
      8926.00  0.000380148
      8927.00  0.000378951
      8928.00  0.000377747
      8929.00  0.000376539
      8930.00  0.000375325
      8931.00  0.000374105
      8932.00  0.000372880
      8933.00  0.000371649
      8934.00  0.000370412
      8935.00  0.000369170
      8936.00  0.000367922
      8937.00  0.000366668
      8938.00  0.000365409
      8939.00  0.000364143
      8940.00  0.000362872
      8941.00  0.000361595
      8942.00  0.000360312
      8943.00  0.000359023
      8944.00  0.000357728
      8945.00  0.000356428
      8946.00  0.000355121
      8947.00  0.000353808
      8948.00  0.000352489
      8949.00  0.000351164
      8950.00  0.000349832
      8951.00  0.000348495
      8952.00  0.000347151
      8953.00  0.000345801
      8954.00  0.000344445
      8955.00  0.000343083
      8956.00  0.000341714
      8957.00  0.000340339
      8958.00  0.000338957
      8959.00  0.000337569
      8960.00  0.000336175
      8961.00  0.000334774
      8962.00  0.000333366
      8963.00  0.000331952
      8964.00  0.000330532
      8965.00  0.000329104
      8966.00  0.000327671
      8967.00  0.000326230
      8968.00  0.000324783
      8969.00  0.000323329
      8970.00  0.000321868
      8971.00  0.000320401
      8972.00  0.000318926
      8973.00  0.000317445
      8974.00  0.000315957
      8975.00  0.000314462
      8976.00  0.000312960
      8977.00  0.000311451
      8978.00  0.000309935
      8979.00  0.000308412
      8980.00  0.000306882
      8981.00  0.000305345
      8982.00  0.000303801
      8983.00  0.000302249
      8984.00  0.000300691
      8985.00  0.000299125
      8986.00  0.000297551
      8987.00  0.000295971
      8988.00  0.000294383
      8989.00  0.000292788
      8990.00  0.000291186
      8991.00  0.000289576
      8992.00  0.000287958
      8993.00  0.000286334
      8994.00  0.000284701
      8995.00  0.000283061
      8996.00  0.000281414
      8997.00  0.000279759
      8998.00  0.000278096
      8999.00  0.000276426
